 vasp.5.4.4.18Apr17-6-g9f103f2a35 (build Nov 30 2021 16:11:53) complex          
  
 executed on             LinuxIFC date 2022.02.10  08:51:17
 running on    4 total cores
 distrk:  each k-point on    4 cores,    1 groups
 distr:  one band on NCORES_PER_BAND=   1 cores,    4 groups


--------------------------------------------------------------------------------------------------------


 INCAR:
 POTCAR:    PAW_PBE C 08Apr2002                   
 POTCAR:    PAW_PBE O 08Apr2002                   
 POTCAR:    PAW_PBE C 08Apr2002                   
   VRHFIN =C: s2p2                                                              
   LEXCH  = PE                                                                  
   EATOM  =   147.1560 eV,   10.8157 Ry                                         
                                                                                
   TITEL  = PAW_PBE C 08Apr2002                                                 
   LULTRA =        F    use ultrasoft PP ?                                      
   IUNSCR =        1    unscreen: 0-lin 1-nonlin 2-no                           
   RPACOR =    1.200    partial core radius                                     
   POMASS =   12.011; ZVAL   =    4.000    mass and valenz                      
   RCORE  =    1.500    outmost cutoff radius                                   
   RWIGS  =    1.630; RWIGS  =    0.863    wigner-seitz radius (au A)           
   ENMAX  =  400.000; ENMIN  =  300.000 eV                                      
   ICORE  =        2    local potential                                         
   LCOR   =        T    correct aug charges                                     
   LPAW   =        T    paw PP                                                  
   EAUG   =  644.873                                                            
   DEXC   =    0.000                                                            
   RMAX   =    1.529    core radius for proj-oper                               
   RAUG   =    1.300    factor for augmentation sphere                          
   RDEP   =    1.501    radius for radial grids                                 
   RDEPT  =    1.300    core radius for aug-charge                              
                                                                                
   Atomic configuration                                                         
    4 entries                                                                   
     n  l   j            E        occ.                                          
     1  0  0.50      -273.3789   2.0000                                         
     2  0  0.50       -13.7508   2.0000                                         
     2  1  0.50        -5.2854   2.0000                                         
     3  2  1.50        -5.4423   0.0000                                         
   Description                                                                  
     l       E           TYP  RCUT    TYP  RCUT                                 
     0    -13.7508458     23  1.200                                             
     0     -8.2022199     23  1.200                                             
     1     -5.2854383     23  1.500                                             
     1     34.0145650     23  1.500                                             
     2     -5.4423304      7  1.500                                             
  local pseudopotential read in
  partial core-charges read in
  partial kinetic energy density read in
  atomic valenz-charges read in
  non local Contribution for L=           0  read in
    real space projection operators read in
  non local Contribution for L=           0  read in
    real space projection operators read in
  non local Contribution for L=           1  read in
    real space projection operators read in
  non local Contribution for L=           1  read in
    real space projection operators read in
    PAW grid and wavefunctions read in
 
   number of l-projection  operators is LMAX  =           4
   number of lm-projection operators is LMMAX =           8
 
 POTCAR:    PAW_PBE O 08Apr2002                   
   VRHFIN =O: s2p4                                                              
   LEXCH  = PE                                                                  
   EATOM  =   432.3788 eV,   31.7789 Ry                                         
                                                                                
   TITEL  = PAW_PBE O 08Apr2002                                                 
   LULTRA =        F    use ultrasoft PP ?                                      
   IUNSCR =        1    unscreen: 0-lin 1-nonlin 2-no                           
   RPACOR =    1.200    partial core radius                                     
   POMASS =   16.000; ZVAL   =    6.000    mass and valenz                      
   RCORE  =    1.520    outmost cutoff radius                                   
   RWIGS  =    1.550; RWIGS  =    0.820    wigner-seitz radius (au A)           
   ENMAX  =  400.000; ENMIN  =  300.000 eV                                      
   ICORE  =        2    local potential                                         
   LCOR   =        T    correct aug charges                                     
   LPAW   =        T    paw PP                                                  
   EAUG   =  605.392                                                            
   DEXC   =    0.000                                                            
   RMAX   =    1.553    core radius for proj-oper                               
   RAUG   =    1.300    factor for augmentation sphere                          
   RDEP   =    1.550    radius for radial grids                                 
   RDEPT  =    1.329    core radius for aug-charge                              
                                                                                
   Atomic configuration                                                         
    4 entries                                                                   
     n  l   j            E        occ.                                          
     1  0  0.50      -514.6923   2.0000                                         
     2  0  0.50       -23.9615   2.0000                                         
     2  1  0.50        -9.0305   4.0000                                         
     3  2  1.50        -9.5241   0.0000                                         
   Description                                                                  
     l       E           TYP  RCUT    TYP  RCUT                                 
     0    -23.9615318     23  1.200                                             
     0     -9.5240782     23  1.200                                             
     1     -9.0304911     23  1.520                                             
     1      8.1634956     23  1.520                                             
     2     -9.5240782      7  1.500                                             
  local pseudopotential read in
  partial core-charges read in
  partial kinetic energy density read in
  kinetic energy density of atom read in
  atomic valenz-charges read in
  non local Contribution for L=           0  read in
    real space projection operators read in
  non local Contribution for L=           0  read in
    real space projection operators read in
  non local Contribution for L=           1  read in
    real space projection operators read in
  non local Contribution for L=           1  read in
    real space projection operators read in
    PAW grid and wavefunctions read in
 
   number of l-projection  operators is LMAX  =           4
   number of lm-projection operators is LMMAX =           8
 
 Optimization of the real space projectors (new method)

 maximal supplied QI-value         = 25.13
 optimisation between [QCUT,QGAM] = [ 10.81, 21.61] = [ 32.71,130.83] Ry 
 Optimized for a Real-space Cutoff    1.23 Angstroem

   l    n(q)    QCUT    max X(q) W(low)/X(q) W(high)/X(q)  e(spline) 
   0      8    10.807   115.676    0.36E-03    0.72E-03    0.24E-06
   0      8    10.807    87.132    0.35E-03    0.71E-03    0.24E-06
   1      7    10.807     4.429    0.19E-03    0.39E-03    0.11E-06
   1      7    10.807     2.733    0.14E-03    0.28E-03    0.13E-06
 Optimization of the real space projectors (new method)

 maximal supplied QI-value         = 24.76
 optimisation between [QCUT,QGAM] = [ 10.64, 21.54] = [ 31.73,129.89] Ry 
 Optimized for a Real-space Cutoff    1.23 Angstroem

   l    n(q)    QCUT    max X(q) W(low)/X(q) W(high)/X(q)  e(spline) 
   0      8    10.645    20.381    0.38E-03    0.60E-03    0.15E-06
   0      8    10.645    15.268    0.40E-03    0.65E-03    0.17E-06
   1      7    10.645     5.964    0.30E-03    0.63E-03    0.18E-06
   1      7    10.645     5.382    0.24E-03    0.53E-03    0.16E-06
  PAW_PBE C 08Apr2002                   :
 energy of atom  1       EATOM= -147.1560
 kinetic energy error for atom=    0.0116 (will be added to EATOM!!)
  PAW_PBE O 08Apr2002                   :
 energy of atom  2       EATOM= -432.3788
 kinetic energy error for atom=    0.0389 (will be added to EATOM!!)
 
 
 POSCAR: # Bulk supercell                        
  positions in direct lattice
  velocities in cartesian coordinates
 exchange correlation table for  LEXCH =        8
   RHO(1)=    0.500       N(1)  =     2000
   RHO(2)=  100.500       N(2)  =     4000
 


--------------------------------------------------------------------------------------------------------


 ion  position               nearest neighbor table
   1  1.000  0.000  0.000-   4 1.42  44 1.42   2 1.42
   2  0.333  0.000  0.000-   3 1.42  43 1.42   1 1.42
   3  0.500  0.031  0.000-   2 1.42   6 1.42   4 1.42
   4  0.833  0.031  0.000-   1 1.42   5 1.42   3 1.42
   5  1.000  0.062  0.000-   6 1.42   4 1.42   8 1.42
   6  0.333  0.062  0.000-   5 1.42   3 1.42   7 1.42
   7  0.500  0.094  0.000-  10 1.42   6 1.42   8 1.42
   8  0.833  0.094  0.000-   9 1.42   5 1.42   7 1.42
   9  1.000  0.125  0.000-   8 1.42  12 1.42  10 1.42
  10  0.333  0.125  0.000-   7 1.42  11 1.42   9 1.42
  11  0.500  0.156  0.000-  12 1.42  14 1.42  10 1.42
  12  0.833  0.156  0.000-  11 1.42  13 1.42   9 1.42
  13  1.000  0.187  0.000-  16 1.42  12 1.42  14 1.42
  14  0.333  0.187  0.000-  15 1.42  11 1.42  13 1.42
  15  0.500  0.219  0.000-  14 1.42  18 1.42  16 1.42
  16  0.833  0.219  0.000-  13 1.42  17 1.42  15 1.42
  17  1.000  0.250  0.000-  20 1.42  16 1.42  18 1.42
  18  0.333  0.250  0.000-  19 1.42  15 1.42  17 1.42
  19  0.499  0.281  0.000-  22 1.42  18 1.42  20 1.43
  20  0.834  0.281  0.000-  21 1.42  17 1.42  19 1.43
  21  0.002  0.312  0.000-  22 1.40  20 1.42  24 1.42
  22  0.331  0.312  0.000-  21 1.40  19 1.42  23 1.42
  23  0.500  0.343  0.000-  46 1.28  24 1.42  22 1.42
  24  0.833  0.343  0.000-  45 1.28  23 1.42  21 1.42
  25  0.000  0.688  0.000-  48 1.28  26 1.42  28 1.42
  26  0.333  0.688  0.000-  47 1.28  25 1.42  27 1.42
  27  0.502  0.719  0.000-  28 1.40  30 1.42  26 1.42
  28  0.831  0.719  0.000-  27 1.40  29 1.42  25 1.42
  29  0.999  0.750  0.000-  28 1.42  32 1.42  30 1.43
  30  0.334  0.750  0.000-  27 1.42  31 1.42  29 1.43
  31  0.500  0.781  0.000-  30 1.42  34 1.42  32 1.42
  32  0.833  0.781  0.000-  29 1.42  33 1.42  31 1.42
  33  1.000  0.813  0.000-  36 1.42  32 1.42  34 1.42
  34  0.333  0.813  0.000-  35 1.42  31 1.42  33 1.42
  35  0.500  0.844  0.000-  34 1.42  38 1.42  36 1.42
  36  0.833  0.844  0.000-  33 1.42  37 1.42  35 1.42
  37  1.000  0.875  0.000-  38 1.42  36 1.42  40 1.42
  38  0.333  0.875  0.000-  37 1.42  35 1.42  39 1.42
  39  0.500  0.906  0.000-  42 1.42  38 1.42  40 1.42
  40  0.833  0.906  0.000-  41 1.42  37 1.42  39 1.42
  41  1.000  0.938  0.000-  40 1.42  44 1.42  42 1.42
  42  0.333  0.938  0.000-  39 1.42  43 1.42  41 1.42
  43  0.500  0.969  0.000-  44 1.42   2 1.42  42 1.42
  44  0.833  0.969  0.000-  43 1.42   1 1.42  41 1.42
  45  0.929  0.374  0.000-  24 1.28
  46  0.404  0.374  0.000-  23 1.28
  47  0.429  0.657  0.000-  26 1.28
  48  0.904  0.657  0.000-  25 1.28
 
  LATTYP: Found a simple monoclinic cell.
 ALAT       =     4.2671420396
 B/A-ratio  =     9.2355726048
 C/A-ratio  =     1.5277654391
 COS(beta)  =    -0.8729266537
  
  Lattice vectors:
  
 A1 = (  -2.8441353514,   0.0000000000,  -3.1810996981)
 A2 = (   0.0000000000, -39.4095001221,   0.0000000000)
 A3 = (   1.4220706372,   0.0000000000,   6.3621993962)


Analysis of symmetry for initial positions (statically):
=====================================================================
 Subroutine PRICEL returns:
 Original cell was already a primitive cell.
 

 Routine SETGRP: Setting up the symmetry group for a 
 simple monoclinic supercell.


 Subroutine GETGRP returns: Found  2 space group operations
 (whereof  1 operations were pure point group operations)
 out of a pool of  4 trial point group operations.


The static configuration has the point symmetry C_1 .
 The point group associated with its full space group is C_1h.


Analysis of symmetry for dynamics (positions and initial velocities):
=====================================================================
 Subroutine PRICEL returns:
 Original cell was already a primitive cell.
 

 Routine SETGRP: Setting up the symmetry group for a 
 simple monoclinic supercell.


 Subroutine GETGRP returns: Found  2 space group operations
 (whereof  1 operations were pure point group operations)
 out of a pool of  4 trial point group operations.


The dynamic configuration has the point symmetry C_1 .
 The point group associated with its full space group is C_1h.


Analysis of constrained symmetry for selective dynamics:
=====================================================================
 Subroutine PRICEL returns:
 Original cell was already a primitive cell.
 

 Routine SETGRP: Setting up the symmetry group for a 
 simple monoclinic supercell.


 Subroutine GETGRP returns: Found  2 space group operations
 (whereof  1 operations were pure point group operations)
 out of a pool of  4 trial point group operations.


The constrained configuration has the point symmetry C_1 .
 The point group associated with its full space group is C_1h.


Analysis of structural, dynamic, and magnetic symmetry:
=====================================================================
 Subroutine PRICEL returns:
 Original cell was already a primitive cell.
 

 Routine SETGRP: Setting up the symmetry group for a 
 simple monoclinic supercell.


 Subroutine GETGRP returns: Found  2 space group operations
 (whereof  1 operations were pure point group operations)
 out of a pool of  4 trial point group operations.


The magnetic configuration has the point symmetry C_1 .
 The point group associated with its full space group is C_1h.


 Subroutine INISYM returns: Found  2 space group operations
 (whereof  1 operations are pure point group operations),
 and found     1 'primitive' translations

 
 
 KPOINTS: KPT-Resolved Value to Generate K-Mesh: 0

Automatic generation of k-mesh.
Space group operators:
 irot       det(A)        alpha          n_x          n_y          n_z        tau_x        tau_y        tau_z
    1     1.000000     0.000001     1.000000     0.000000     0.000000     0.000000     0.000000     0.000000
    2    -1.000000   180.000000     0.000000     1.000000     0.000000     0.500000    -0.968769     1.000000
 
 Subroutine IBZKPT returns following result:
 ===========================================
 
 Found      8 irreducible k-points:
 
 Following reciprocal coordinates:
            Coordinates               Weight
  0.000000  0.000000  0.000000      1.000000
  0.166667  0.000000  0.000000      2.000000
  0.333333  0.000000  0.000000      2.000000
  0.500000  0.000000  0.000000      1.000000
  0.000000  0.000000  0.500000      1.000000
  0.166667  0.000000  0.500000      2.000000
  0.333333  0.000000  0.500000      2.000000
  0.500000  0.000000  0.500000      1.000000
 
 Following cartesian coordinates:
            Coordinates               Weight
  0.000000  0.000000  0.000000      1.000000
  0.039067  0.000000  0.017464      2.000000
  0.078134  0.000000  0.034928      2.000000
  0.117200  0.000000  0.052393      1.000000
  0.000000  0.000000  0.157178      1.000000
  0.039067  0.000000  0.174643      2.000000
  0.078134  0.000000  0.192107      2.000000
  0.117200  0.000000  0.209571      1.000000
 
 
 Subroutine IBZKPT_HF returns following result:
 ==============================================
 
 Found     12 k-points in 1st BZ
 the following     12 k-points will be used (e.g. in the exchange kernel)
 Following reciprocal coordinates:   # in IRBZ
  0.000000  0.000000  0.000000    0.08333333   1 t-inv F
  0.166667  0.000000  0.000000    0.08333333   2 t-inv F
  0.333333  0.000000  0.000000    0.08333333   3 t-inv F
  0.500000  0.000000  0.000000    0.08333333   4 t-inv F
  0.000000  0.000000  0.500000    0.08333333   5 t-inv F
  0.166667  0.000000  0.500000    0.08333333   6 t-inv F
  0.333333  0.000000  0.500000    0.08333333   7 t-inv F
  0.500000  0.000000  0.500000    0.08333333   8 t-inv F
 -0.166667  0.000000 -0.000000    0.08333333   2 t-inv T
 -0.333333  0.000000 -0.000000    0.08333333   3 t-inv T
 -0.166667  0.000000 -0.500000    0.08333333   6 t-inv T
 -0.333333  0.000000 -0.500000    0.08333333   7 t-inv T


--------------------------------------------------------------------------------------------------------




 Dimension of arrays:
   k-points           NKPTS =      8   k-points in BZ     NKDIM =      8   number of bands    NBANDS=    188
   number of dos      NEDOS =    301   number of ions     NIONS =     48
   non local maximal  LDIM  =      4   non local SUM 2l+1 LMDIM =      8
   total plane-waves  NPLWV =  90720
   max r-space proj   IRMAX =   1362   max aug-charges    IRDMAX=   2400
   dimension x,y,z NGX =    24 NGY =  210 NGZ =   18
   dimension x,y,z NGXF=    48 NGYF=  420 NGZF=   36
   support grid    NGXF=    48 NGYF=  420 NGZF=   36
   ions per type =              44   4
   NGX,Y,Z   is equivalent  to a cutoff of   9.35,  8.86,  8.59 a.u.
   NGXF,Y,Z  is equivalent  to a cutoff of  18.70, 17.72, 17.18 a.u.

 SYSTEM =  metal                                   
 POSCAR =  # Bulk supercell                        

 Startparameter for this run:
   NWRITE =      2    write-flag & timer
   PREC   = normal    normal or accurate (medium, high low for compatibility)
   ISTART =      1    job   : 0-new  1-cont  2-samecut
   ICHARG =      1    charge: 1-file 2-atom 10-const
   ISPIN  =      2    spin polarized calculation?
   LNONCOLLINEAR =      F non collinear calculations
   LSORBIT =      F    spin-orbit coupling
   INIWAV =      1    electr: 0-lowe 1-rand  2-diag
   LASPH  =      F    aspherical Exc in radial PAW
   METAGGA=      F    non-selfconsistent MetaGGA calc.

 Electronic Relaxation 1
   ENCUT  =  450.0 eV  33.07 Ry    5.75 a.u.   7.38 68.17  6.03*2*pi/ulx,y,z
   ENINI  =  450.0     initial cutoff
   ENAUG  =  644.9 eV  augmentation charge cutoff
   NELM   =    120;   NELMIN=  2; NELMDL=  0     # of ELM steps 
   EDIFF  = 0.1E-03   stopping-criterion for ELM
   LREAL  =      T    real-space projection
   NLSPLINE    = F    spline interpolate recip. space projectors
   LCOMPAT=      F    compatible to vasp.4.4
   GGA_COMPAT  = T    GGA compatible to vasp.4.4-vasp.4.6
   LMAXPAW     = -100 max onsite density
   LMAXMIX     =    2 max onsite mixed and CHGCAR
   VOSKOWN=      0    Vosko Wilk Nusair interpolation
   ROPT   =   -0.00050  -0.00050
 Ionic relaxation
   EDIFFG = -.1E-01   stopping-criterion for IOM
   NSW    =      1    number of steps for IOM
   NBLOCK =      1;   KBLOCK =      1    inner block; outer block 
   IBRION =     -1    ionic relax: 0-MD 1-quasi-New 2-CG
   NFREE  =      0    steps in history (QN), initial steepest desc. (CG)
   ISIF   =      0    stress and relaxation
   IWAVPR =     10    prediction:  0-non 1-charg 2-wave 3-comb
   ISYM   =      2    0-nonsym 1-usesym 2-fastsym
   LCORR  =      T    Harris-Foulkes like correction to forces

   POTIM  = 0.5000    time-step for ionic-motion
   TEIN   =    0.0    initial temperature
   TEBEG  =    0.0;   TEEND  =   0.0 temperature during run
   SMASS  =  -3.00    Nose mass-parameter (am)
   estimated Nose-frequenzy (Omega)   =  0.10E-29 period in steps =****** mass=  -0.416E-27a.u.
   SCALEE = 1.0000    scale energy and forces
   NPACO  =    256;   APACO  = 16.0  distance and # of slots for P.C.
   PSTRESS=    0.0 pullay stress

  Mass of Ions in am
   POMASS =  12.01 16.00
  Ionic Valenz
   ZVAL   =   4.00  6.00
  Atomic Wigner-Seitz radii
   RWIGS  =  -1.00 -1.00
  virtual crystal weights 
   VCA    =   1.00  1.00
   NELECT =     200.0000    total number of electrons
   NUPDOWN=      -1.0000    fix difference up-down

 DOS related values:
   EMIN   =  10.00;   EMAX   =-10.00  energy-range for DOS
   EFERMI =   0.00
   ISMEAR =     0;   SIGMA  =   0.05  broadening in eV -4-tet -1-fermi 0-gaus

 Electronic relaxation 2 (details)
   IALGO  =     48    algorithm
   LDIAG  =      T    sub-space diagonalisation (order eigenvalues)
   LSUBROT=      F    optimize rotation matrix (better conditioning)
   TURBO    =      0    0=normal 1=particle mesh
   IRESTART =      0    0=no restart 2=restart with 2 vectors
   NREBOOT  =      0    no. of reboots
   NMIN     =      0    reboot dimension
   EREF     =   0.00    reference energy to select bands
   IMIX   =      4    mixing-type and parameters
     AMIX     =   0.40;   BMIX     =  1.00
     AMIX_MAG =   1.60;   BMIX_MAG =  1.00
     AMIN     =   0.10
     WC   =   100.;   INIMIX=   1;  MIXPRE=   1;  MAXMIX= -45

 Intra band minimization:
   WEIMIN = 0.0000     energy-eigenvalue tresh-hold
   EBREAK =  0.13E-06  absolut break condition
   DEPER  =   0.30     relativ break condition  

   TIME   =   0.40     timestep for ELM

  volume/ion in A,a.u.               =      11.14        75.19
  Fermi-wavevector in a.u.,A,eV,Ry     =   1.179447  2.228831 18.926993  1.391095
  Thomas-Fermi vector in A             =   2.315757
 
 Write flags
   LWAVE        =      T    write WAVECAR
   LDOWNSAMPLE  =      F    k-point downsampling of WAVECAR
   LCHARG       =      T    write CHGCAR
   LVTOT        =      F    write LOCPOT, total local potential
   LVHAR        =      F    write LOCPOT, Hartree potential only
   LELF         =      F    write electronic localiz. function (ELF)
   LORBIT       =      0    0 simple, 1 ext, 2 COOP (PROOUT), +10 PAW based schemes


 Dipole corrections
   LMONO  =      F    monopole corrections only (constant potential shift)
   LDIPOL =      F    correct potential (dipole corrections)
   IDIPOL =      0    1-x, 2-y, 3-z, 4-all directions 
   EPSILON=  1.0000000 bulk dielectric constant

 Exchange correlation treatment:
   GGA     =    --    GGA type
   LEXCH   =     8    internal setting for exchange type
   VOSKOWN=      0    Vosko Wilk Nusair interpolation
   LHFCALC =     F    Hartree Fock is set to
   LHFONE  =     F    Hartree Fock one center treatment
   AEXX    =    0.0000 exact exchange contribution

 Linear response parameters
   LEPSILON=     F    determine dielectric tensor
   LRPA    =     F    only Hartree local field effects (RPA)
   LNABLA  =     F    use nabla operator in PAW spheres
   LVEL    =     F    velocity operator in full k-point grid
   LINTERFAST=   F  fast interpolation
   KINTER  =     0    interpolate to denser k-point grid
   CSHIFT  =0.1000    complex shift for real part using Kramers Kronig
   OMEGAMAX=  -1.0    maximum frequency
   DEG_THRESHOLD= 0.2000000E-02 threshold for treating states as degnerate
   RTIME   =   -0.100 relaxation time in fs
  (WPLASMAI=    0.000 imaginary part of plasma frequency in eV, 0.658/RTIME)
   DFIELD  = 0.0000000 0.0000000 0.0000000 field for delta impulse in time
 
 Orbital magnetization related:
   ORBITALMAG=     F  switch on orbital magnetization
   LCHIMAG   =     F  perturbation theory with respect to B field
   DQ        =  0.001000  dq finite difference perturbation B field
   LLRAUG    =     F  two centre corrections for induced B field



--------------------------------------------------------------------------------------------------------


 Static calculation
 charge density and potential will be updated during run
 spin polarized calculation
 RMM-DIIS sequential band-by-band
 perform sub-space diagonalisation
    before iterative eigenvector-optimisation
 modified Broyden-mixing scheme, WC =      100.0
 initial mixing is a Kerker type mixing with AMIX =  0.4000 and BMIX =      1.0000
 Hartree-type preconditioning will be used
 using additional bands           88
 real space projection scheme for non local part
 use partial core corrections
 calculate Harris-corrections to forces 
   (improved forces if not selfconsistent)
 use gradient corrections 
 use of overlap-Matrix (Vanderbilt PP)
 Gauss-broadening in eV      SIGMA  =   0.05


--------------------------------------------------------------------------------------------------------


  energy-cutoff  :      450.00
  volume of cell :      534.83
      direct lattice vectors                 reciprocal lattice vectors
     4.266200066  0.000000000  0.000000000     0.234400634  0.000000000  0.104785421
     0.000000000 39.409500122  0.000000000     0.000000000  0.025374592  0.000000000
    -1.422064714  0.000000000  3.181099698     0.000000000  0.000000000  0.314356699

  length of vectors
     4.266200066 39.409500122  3.484488964     0.256755996  0.025374592  0.314356699


 
 old parameters found on file WAVECAR:
  energy-cutoff  :      450.00
  volume of cell :      534.83
      direct lattice vectors                 reciprocal lattice vectors
     4.266200066  0.000000000  0.000000000     0.234400634  0.000000000  0.104785421
     0.000000000 39.409500122  0.000000000     0.000000000  0.025374592  0.000000000
    -1.422064714  0.000000000  3.181099698     0.000000000  0.000000000  0.314356699

  length of vectors

 
 k-points in units of 2pi/SCALE and weight: KPT-Resolved Value to Generate K-Mesh: 0
   0.00000000  0.00000000  0.00000000       0.083
   0.03906677  0.00000000  0.01746424       0.167
   0.07813354  0.00000000  0.03492847       0.167
   0.11720032  0.00000000  0.05239271       0.083
   0.00000000  0.00000000  0.15717835       0.083
   0.03906677  0.00000000  0.17464259       0.167
   0.07813354  0.00000000  0.19210682       0.167
   0.11720032  0.00000000  0.20957106       0.083
 
 k-points in reciprocal lattice and weights: KPT-Resolved Value to Generate K-Mesh: 0
   0.00000000  0.00000000  0.00000000       0.083
   0.16666667  0.00000000  0.00000000       0.167
   0.33333333  0.00000000  0.00000000       0.167
   0.50000000  0.00000000  0.00000000       0.083
   0.00000000  0.00000000  0.50000000       0.083
   0.16666667  0.00000000  0.50000000       0.167
   0.33333333  0.00000000  0.50000000       0.167
   0.50000000  0.00000000  0.50000000       0.083
 
 position of ions in fractional coordinates (direct lattice) 
   0.99972635  0.00000783  0.00000000
   0.33324726  0.00000789  0.00000000
   0.49972635  0.03122317  0.00000000
   0.83324726  0.03122310  0.00000000
   0.99989858  0.06246133  0.00000000
   0.33301183  0.06245907  0.00000000
   0.49966823  0.09369861  0.00000000
   0.83324927  0.09370033  0.00000000
   0.99972692  0.12492436  0.00000000
   0.33326526  0.12492629  0.00000000
   0.49993855  0.15617451  0.00000000
   0.83312972  0.15617360  0.00000000
   0.99968157  0.18741802  0.00000000
   0.33345729  0.18742148  0.00000000
   0.49976508  0.21863473  0.00000000
   0.83340337  0.21863213  0.00000000
   0.99982960  0.24990082  0.00000000
   0.33333668  0.24990181  0.00000000
   0.49924169  0.28117075  0.00000000
   0.83390417  0.28116934  0.00000000
   0.00216473  0.31214964  0.00000000
   0.33091401  0.31214843  0.00000000
   0.50011866  0.34329153  0.00000000
   0.83287698  0.34329222  0.00000000
   0.00011866  0.68793945  0.00000000
   0.33287698  0.68793876  0.00000000
   0.50216473  0.71908037  0.00000000
   0.83091401  0.71908157  0.00000000
   0.99924169  0.75005929  0.00000000
   0.33390417  0.75006070  0.00000000
   0.49982960  0.78133017  0.00000000
   0.83333668  0.78132918  0.00000000
   0.99976508  0.81259525  0.00000000
   0.33340337  0.81259786  0.00000000
   0.49968157  0.84381198  0.00000000
   0.83345729  0.84380853  0.00000000
   0.99993855  0.87505551  0.00000000
   0.33312972  0.87505641  0.00000000
   0.49972692  0.90630566  0.00000000
   0.83326526  0.90630372  0.00000000
   0.99966823  0.93753236  0.00000000
   0.33324927  0.93753065  0.00000000
   0.49989858  0.96876969  0.00000000
   0.83301183  0.96877194  0.00000000
   0.92883304  0.37417703  0.00000000
   0.40408709  0.37417364  0.00000000
   0.42883310  0.65705395  0.00000000
   0.90408811  0.65705735  0.00000000
 
 position of ions in cartesian coordinates  (Angst):
   4.26503263  0.00030848  0.00000000
   1.42169948  0.00031111  0.00000000
   2.13193260  1.23048958  0.00000000
   3.55479951  1.23048695  0.00000000
   4.26576740  2.46156976  0.00000000
   1.42069508  2.46148088  0.00000000
   2.13168463  3.69261553  0.00000000
   3.55480809  3.69268326  0.00000000
   4.26503507  4.92320651  0.00000000
   1.42177628  4.92328284  0.00000000
   2.13283788  6.15475946  0.00000000
   3.55429807  6.15472366  0.00000000
   4.26484158  7.38605046  0.00000000
   1.42259550  7.38618671  0.00000000
   2.13209783  8.61628554  0.00000000
   3.55546553  8.61618281  0.00000000
   4.26547312  9.84846638  0.00000000
   1.42208095  9.84850538  0.00000000
   2.12986493 11.08079856  0.00000000
   3.55760202 11.08074295  0.00000000
   0.00923518 12.30166110  0.00000000
   1.41174537 12.30161368  0.00000000
   2.13360627 13.52894768  0.00000000
   3.55321984 13.52897492  0.00000000
   0.00050624 27.11134999  0.00000000
   1.42011981 27.11132275  0.00000000
   2.14233521 28.33859783  0.00000000
   3.54484540 28.33864525  0.00000000
   4.26296496 29.55946155  0.00000000
   1.42450198 29.55951716  0.00000000
   2.13237308 30.79183129  0.00000000
   3.55518098 30.79179229  0.00000000
   4.26519787 32.02397279  0.00000000
   1.42236549 32.02407553  0.00000000
   2.13174155 33.25420843  0.00000000
   3.55569553 33.25407218  0.00000000
   4.26593791 34.48550006  0.00000000
   1.42119804 34.48553586  0.00000000
   2.13193503 35.71705297  0.00000000
   3.55487632 35.71697665  0.00000000
   4.26478467 36.94768182  0.00000000
   1.42170806 36.94761409  0.00000000
   2.13266737 38.17872909  0.00000000
   3.55379512 38.17881797  0.00000000
   3.96258756 14.74612989  0.00000000
   1.72391639 14.74599599  0.00000000
   1.82948778 25.89416778  0.00000000
   3.85702074 25.89430168  0.00000000
 


--------------------------------------------------------------------------------------------------------


 k-point  1 :   0.0000 0.0000 0.0000  plane waves:   11583
 k-point  2 :   0.1667 0.0000 0.0000  plane waves:   11555
 k-point  3 :   0.3333 0.0000 0.0000  plane waves:   11508
 k-point  4 :   0.5000 0.0000 0.0000  plane waves:   11488
 k-point  5 :   0.0000 0.0000 0.5000  plane waves:   11620
 k-point  6 :   0.1667 0.0000 0.5000  plane waves:   11655
 k-point  7 :   0.3333 0.0000 0.5000  plane waves:   11649
 k-point  8 :   0.5000 0.0000 0.5000  plane waves:   11620

 maximum and minimum number of plane-waves per node :     11655    11488

 maximum number of plane-waves:     11655
 maximum index in each direction: 
   IXMAX=    7   IYMAX=   68   IZMAX=    6
   IXMIN=   -7   IYMIN=  -68   IZMIN=   -6


 serial   3D FFT for wavefunctions
 parallel 3D FFT for charge:
    minimum data exchange during FFTs selected (reduces bandwidth)


 total amount of memory used by VASP MPI-rank0   209956. kBytes
=======================================================================

   base      :      30000. kBytes
   nonlr-proj:       5386. kBytes
   fftplans  :       6832. kBytes
   grid      :      22579. kBytes
   one-center:        294. kBytes
   wavefun   :     144865. kBytes
 
     INWAV:  cpu time    0.9229: real time    0.9273
 Broyden mixing: mesh for mixing (old mesh)
   NGX = 15   NGY =137   NGZ = 13
  (NGX  = 48   NGY  =420   NGZ  = 36)
  gives a total of  26715 points

 initial charge density was supplied:
 number of electron     199.9999925 magnetization       2.2620932
 keeping initial charge density in first step


--------------------------------------------------------------------------------------------------------


 Maximum index for non-local projection operator         1292
 Maximum index for augmentation-charges          535 (set IRDMAX)


--------------------------------------------------------------------------------------------------------


 First call to EWALD:  gamma=   0.218
 Maximum number of real-space cells 5x 1x 6
 Maximum number of reciprocal cells 2x11x 1

    FEWALD:  cpu time    0.0041: real time    0.0041


--------------------------------------- Iteration      1(   1)  ---------------------------------------


    POTLOK:  cpu time    0.1947: real time    0.1994
    SETDIJ:  cpu time    0.0383: real time    0.0382
    EDDIAG:  cpu time    1.7047: real time    1.7092
  RMM-DIIS:  cpu time    4.7159: real time    4.7250
    ORTHCH:  cpu time    0.4303: real time    0.4308
       DOS:  cpu time    0.0017: real time    0.0017
    CHARGE:  cpu time    0.3419: real time    0.3424
    MIXING:  cpu time    0.0041: real time    0.0041
    --------------------------------------------
      LOOP:  cpu time    7.4316: real time    7.4509

 eigenvalue-minimisations  :  3550
 total energy-change (2. order) :-0.4235814E+03  (-0.5897983E-07)
 number of electron     199.9999925 magnetization       2.2617645
 augmentation part        6.5951250 magnetization       0.5345831

 Broyden mixing:
  rms(total) = 0.65797E-03    rms(broyden)= 0.65771E-03
  rms(prec ) = 0.73649E-03
  weight for this iteration     100.00

 Free energy of the ion-electron system (eV)
  ---------------------------------------------------
  alpha Z        PSCENC =       372.54520999
  Ewald energy   TEWEN  =     38165.18647767
  -Hartree energ DENC   =    -46379.33507858
  -exchange      EXHF   =         0.00000000
  -V(xc)+E(xc)   XCENC  =       720.75226042
  PAW double counting   =     20731.40712129   -20768.83592846
  entropy T*S    EENTRO =        -0.00880785
  eigenvalues    EBANDS =     -1469.00469479
  atomic energy  EATOM  =      8203.71208324
  Solvation  Ediel_sol  =         0.00000000
  ---------------------------------------------------
  free energy    TOTEN  =      -423.58135706 eV

  energy without entropy =     -423.57254921  energy(sigma->0) =     -423.57695313


--------------------------------------------------------------------------------------------------------




--------------------------------------- Iteration      1(   2)  ---------------------------------------


    POTLOK:  cpu time    0.1805: real time    0.1808
    SETDIJ:  cpu time    0.0328: real time    0.0328
    EDDIAG:  cpu time    1.6962: real time    1.6997
  RMM-DIIS:  cpu time    4.4762: real time    4.4875
    ORTHCH:  cpu time    0.4278: real time    0.4282
       DOS:  cpu time    0.0017: real time    0.0017
    --------------------------------------------
      LOOP:  cpu time    6.8150: real time    6.8305

 eigenvalue-minimisations  :  3247
 total energy-change (2. order) : 0.1564234E-04  (-0.2448770E-07)
 number of electron     199.9999925 magnetization       2.2617645
 augmentation part        6.5951250 magnetization       0.5345831

 Free energy of the ion-electron system (eV)
  ---------------------------------------------------
  alpha Z        PSCENC =       372.54520999
  Ewald energy   TEWEN  =     38165.18647767
  -Hartree energ DENC   =    -46379.38395814
  -exchange      EXHF   =         0.00000000
  -V(xc)+E(xc)   XCENC  =       720.75215910
  PAW double counting   =     20731.41435769   -20768.84316026
  entropy T*S    EENTRO =        -0.00877935
  eigenvalues    EBANDS =     -1468.95573137
  atomic energy  EATOM  =      8203.71208324
  Solvation  Ediel_sol  =         0.00000000
  ---------------------------------------------------
  free energy    TOTEN  =      -423.58134141 eV

  energy without entropy =     -423.57256207  energy(sigma->0) =     -423.57695174


--------------------------------------------------------------------------------------------------------




 average (electrostatic) potential at core
  the test charge radii are     0.6991  0.7215
  (the norm of the test charge is              1.0000)
       1 -53.6214       2 -53.6213       3 -53.6219       4 -53.6218       5 -53.5988
       6 -53.5990       7 -53.6105       8 -53.6107       9 -53.6106      10 -53.6103
      11 -53.5836      12 -53.5835      13 -53.5695      14 -53.5698      15 -53.5671
      16 -53.5671      17 -53.5722      18 -53.5721      19 -53.5406      20 -53.5406
      21 -53.4912      22 -53.4910      23 -54.4459      24 -54.4462      25 -54.4527
      26 -54.4530      27 -53.4969      28 -53.4967      29 -53.5431      30 -53.5431
      31 -53.5738      32 -53.5737      33 -53.5680      34 -53.5680      35 -53.5683
      36 -53.5680      37 -53.5815      38 -53.5814      39 -53.6075      40 -53.6079
      41 -53.6076      42 -53.6076      43 -53.5972      44 -53.5973      45 -74.4548
      46 -74.4540      47 -74.4601      48 -74.4592
 
 
 
 E-fermi :   1.8014     XC(G=0):  -8.3358     alpha+bet : -8.8053


 spin component 1

 k-point     1 :       0.0000    0.0000    0.0000
  band No.  band energies     occupation 
      1     -21.1858      1.00000
      2     -21.1801      1.00000
      3     -18.5854      1.00000
      4     -18.5798      1.00000
      5     -17.9272      1.00000
      6     -17.7922      1.00000
      7     -17.6042      1.00000
      8     -17.3450      1.00000
      9     -17.0129      1.00000
     10     -16.6070      1.00000
     11     -16.1383      1.00000
     12     -15.5940      1.00000
     13     -14.9899      1.00000
     14     -14.3267      1.00000
     15     -13.6127      1.00000
     16     -12.8594      1.00000
     17     -12.3686      1.00000
     18     -12.2567      1.00000
     19     -12.1060      1.00000
     20     -12.0913      1.00000
     21     -11.8954      1.00000
     22     -11.6223      1.00000
     23     -11.3910      1.00000
     24     -11.3467      1.00000
     25     -11.2859      1.00000
     26     -11.2846      1.00000
     27     -11.1773      1.00000
     28     -11.0696      1.00000
     29     -10.8906      1.00000
     30     -10.8713      1.00000
     31     -10.7911      1.00000
     32     -10.6731      1.00000
     33     -10.5930      1.00000
     34     -10.4247      1.00000
     35      -9.9059      1.00000
     36      -9.3301      1.00000
     37      -8.7013      1.00000
     38      -8.6984      1.00000
     39      -8.6279      1.00000
     40      -8.3281      1.00000
     41      -8.2824      1.00000
     42      -8.0225      1.00000
     43      -7.8281      1.00000
     44      -7.6508      1.00000
     45      -7.2994      1.00000
     46      -7.2969      1.00000
     47      -6.8851      1.00000
     48      -6.6930      1.00000
     49      -6.5400      1.00000
     50      -6.2050      1.00000
     51      -5.9873      1.00000
     52      -5.7663      1.00000
     53      -5.5937      1.00000
     54      -5.3013      1.00000
     55      -5.0430      1.00000
     56      -4.9857      1.00000
     57      -4.7922      1.00000
     58      -4.5714      1.00000
     59      -4.5046      1.00000
     60      -4.4918      1.00000
     61      -4.3712      1.00000
     62      -4.2585      1.00000
     63      -4.2159      1.00000
     64      -4.1700      1.00000
     65      -3.9056      1.00000
     66      -3.7554      1.00000
     67      -3.6411      1.00000
     68      -3.5732      1.00000
     69      -3.2026      1.00000
     70      -3.1782      1.00000
     71      -3.1502      1.00000
     72      -2.7189      1.00000
     73      -2.6817      1.00000
     74      -2.6401      1.00000
     75      -2.2144      1.00000
     76      -2.1621      1.00000
     77      -2.1296      1.00000
     78      -2.0776      1.00000
     79      -2.0694      1.00000
     80      -1.6918      1.00000
     81      -1.6650      1.00000
     82      -1.6549      1.00000
     83      -1.3777      1.00000
     84      -1.3226      1.00000
     85      -1.1152      1.00000
     86      -1.0903      1.00000
     87      -1.0559      1.00000
     88      -1.0194      1.00000
     89      -0.8480      1.00000
     90      -0.6003      1.00000
     91      -0.4265      1.00000
     92      -0.2666      1.00000
     93       0.1494      1.00000
     94       0.2163      1.00000
     95       0.6460      1.00000
     96       0.8511      1.00000
     97       1.2065      1.00000
     98       1.3941      1.00000
     99       1.3994      1.00000
    100       1.4498      1.00000
    101       1.8537      0.06951
    102       1.9801      0.00000
    103       2.4035      0.00000
    104       2.5572      0.00000
    105       2.7115      0.00000
    106       2.9068      0.00000
    107       2.9886      0.00000
    108       3.0197      0.00000
    109       3.0278      0.00000
    110       3.2609      0.00000
    111       3.2660      0.00000
    112       3.3224      0.00000
    113       4.1439      0.00000
    114       5.0167      0.00000
    115       5.9319      0.00000
    116       6.5891      0.00000
    117       6.7023      0.00000
    118       6.8445      0.00000
    119       6.8791      0.00000
    120       7.0448      0.00000
    121       7.3042      0.00000
    122       7.6166      0.00000
    123       7.8462      0.00000
    124       7.9595      0.00000
    125       8.3503      0.00000
    126       8.6965      0.00000
    127       8.8323      0.00000
    128       9.1183      0.00000
    129       9.2188      0.00000
    130       9.2666      0.00000
    131       9.6983      0.00000
    132       9.7665      0.00000
    133       9.8868      0.00000
    134      10.2254      0.00000
    135      10.2514      0.00000
    136      10.3016      0.00000
    137      10.3674      0.00000
    138      10.4462      0.00000
    139      10.5067      0.00000
    140      10.5483      0.00000
    141      10.6196      0.00000
    142      10.8867      0.00000
    143      11.0052      0.00000
    144      11.0942      0.00000
    145      11.1474      0.00000
    146      11.2729      0.00000
    147      11.3103      0.00000
    148      11.4597      0.00000
    149      11.5390      0.00000
    150      11.6788      0.00000
    151      11.8638      0.00000
    152      12.1969      0.00000
    153      12.2321      0.00000
    154      12.2460      0.00000
    155      12.2703      0.00000
    156      12.4492      0.00000
    157      12.6554      0.00000
    158      12.6747      0.00000
    159      12.7154      0.00000
    160      12.7733      0.00000
    161      12.8657      0.00000
    162      12.9142      0.00000
    163      12.9720      0.00000
    164      12.9841      0.00000
    165      13.0159      0.00000
    166      13.1335      0.00000
    167      13.1615      0.00000
    168      13.3020      0.00000
    169      13.4047      0.00000
    170      13.4926      0.00000
    171      13.5855      0.00000
    172      13.5961      0.00000
    173      13.7179      0.00000
    174      13.8517      0.00000
    175      13.9030      0.00000
    176      13.9261      0.00000
    177      13.9480      0.00000
    178      14.1156      0.00000
    179      14.1573      0.00000
    180      14.2410      0.00000
    181      14.4249      0.00000
    182      14.4856      0.00000
    183      14.6949      0.00000
    184      14.7748      0.00000
    185      14.8817      0.00000
    186      15.0602      0.00000
    187      15.0664      0.00000
    188      15.4256      0.00000

 k-point     2 :       0.1667    0.0000    0.0000
  band No.  band energies     occupation 
      1     -21.0666      1.00000
      2     -21.0609      1.00000
      3     -18.8079      1.00000
      4     -18.8023      1.00000
      5     -17.7485      1.00000
      6     -17.6139      1.00000
      7     -17.4267      1.00000
      8     -17.1685      1.00000
      9     -16.8376      1.00000
     10     -16.4331      1.00000
     11     -15.9660      1.00000
     12     -15.4235      1.00000
     13     -14.8218      1.00000
     14     -14.1619      1.00000
     15     -13.6888      1.00000
     16     -13.5700      1.00000
     17     -13.4536      1.00000
     18     -13.4095      1.00000
     19     -13.1877      1.00000
     20     -12.9027      1.00000
     21     -12.7154      1.00000
     22     -12.5573      1.00000
     23     -12.1723      1.00000
     24     -12.0273      1.00000
     25     -11.6734      1.00000
     26     -11.4828      1.00000
     27     -10.5727      1.00000
     28     -10.4148      1.00000
     29     -10.0061      1.00000
     30      -9.9290      1.00000
     31      -9.8081      1.00000
     32      -9.7647      1.00000
     33      -9.6171      1.00000
     34      -9.6154      1.00000
     35      -9.4715      1.00000
     36      -9.4126      1.00000
     37      -9.3972      1.00000
     38      -8.8642      1.00000
     39      -8.2021      1.00000
     40      -7.9093      1.00000
     41      -7.8189      1.00000
     42      -7.6267      1.00000
     43      -7.4786      1.00000
     44      -7.3679      1.00000
     45      -7.1391      1.00000
     46      -6.9594      1.00000
     47      -6.6413      1.00000
     48      -6.4609      1.00000
     49      -6.4435      1.00000
     50      -5.9422      1.00000
     51      -5.8895      1.00000
     52      -5.6723      1.00000
     53      -5.4041      1.00000
     54      -5.2427      1.00000
     55      -4.9585      1.00000
     56      -4.8370      1.00000
     57      -4.7473      1.00000
     58      -4.5290      1.00000
     59      -4.4271      1.00000
     60      -4.4190      1.00000
     61      -4.2884      1.00000
     62      -4.2773      1.00000
     63      -4.1916      1.00000
     64      -4.0885      1.00000
     65      -3.9111      1.00000
     66      -3.8252      1.00000
     67      -3.6015      1.00000
     68      -3.5007      1.00000
     69      -3.4958      1.00000
     70      -3.1330      1.00000
     71      -3.1065      1.00000
     72      -3.0232      1.00000
     73      -2.7065      1.00000
     74      -2.6654      1.00000
     75      -2.5135      1.00000
     76      -2.3470      1.00000
     77      -2.2983      1.00000
     78      -2.2778      1.00000
     79      -2.0934      1.00000
     80      -2.0542      1.00000
     81      -1.9951      1.00000
     82      -1.8074      1.00000
     83      -1.6532      1.00000
     84      -1.6402      1.00000
     85      -1.5794      1.00000
     86      -1.4702      1.00000
     87      -1.4125      1.00000
     88      -1.4072      1.00000
     89      -1.2292      1.00000
     90      -1.0064      1.00000
     91      -0.9152      1.00000
     92      -0.5439      1.00000
     93      -0.4107      1.00000
     94      -0.1186      1.00000
     95       0.1540      1.00000
     96       0.3082      1.00000
     97       0.5961      1.00000
     98       0.6492      1.00000
     99       1.1898      1.00000
    100       1.1951      1.00000
    101       1.9401      0.00004
    102       1.9491      0.00001
    103       3.1740      0.00000
    104       3.2439      0.00000
    105       3.5295      0.00000
    106       3.6217      0.00000
    107       3.8740      0.00000
    108       3.9240      0.00000
    109       4.0100      0.00000
    110       4.0285      0.00000
    111       4.0475      0.00000
    112       4.1656      0.00000
    113       4.3244      0.00000
    114       4.9177      0.00000
    115       5.7362      0.00000
    116       6.6261      0.00000
    117       6.9639      0.00000
    118       7.0722      0.00000
    119       7.2060      0.00000
    120       7.3947      0.00000
    121       7.5499      0.00000
    122       7.6439      0.00000
    123       7.9459      0.00000
    124       8.2574      0.00000
    125       8.5032      0.00000
    126       8.6609      0.00000
    127       9.0390      0.00000
    128       9.2673      0.00000
    129       9.4149      0.00000
    130       9.4657      0.00000
    131       9.5587      0.00000
    132       9.9005      0.00000
    133      10.0991      0.00000
    134      10.1634      0.00000
    135      10.2870      0.00000
    136      10.3170      0.00000
    137      10.3628      0.00000
    138      10.3706      0.00000
    139      10.4536      0.00000
    140      10.5144      0.00000
    141      10.5258      0.00000
    142      10.6603      0.00000
    143      10.7002      0.00000
    144      10.8735      0.00000
    145      11.0196      0.00000
    146      11.0901      0.00000
    147      11.1005      0.00000
    148      11.3237      0.00000
    149      11.3640      0.00000
    150      11.4020      0.00000
    151      11.5445      0.00000
    152      11.6511      0.00000
    153      11.7149      0.00000
    154      11.9310      0.00000
    155      12.0129      0.00000
    156      12.1762      0.00000
    157      12.3476      0.00000
    158      12.4411      0.00000
    159      12.4769      0.00000
    160      12.5465      0.00000
    161      12.7064      0.00000
    162      12.7583      0.00000
    163      12.7723      0.00000
    164      12.8508      0.00000
    165      12.8884      0.00000
    166      13.1485      0.00000
    167      13.1585      0.00000
    168      13.3084      0.00000
    169      13.3837      0.00000
    170      13.5022      0.00000
    171      13.7106      0.00000
    172      13.7783      0.00000
    173      13.8062      0.00000
    174      13.9166      0.00000
    175      14.0464      0.00000
    176      14.1094      0.00000
    177      14.1789      0.00000
    178      14.2175      0.00000
    179      14.2716      0.00000
    180      14.4466      0.00000
    181      14.4687      0.00000
    182      14.5928      0.00000
    183      14.7495      0.00000
    184      14.9220      0.00000
    185      15.0002      0.00000
    186      15.0316      0.00000
    187      15.3810      0.00000
    188      15.4114      0.00000

 k-point     3 :       0.3333    0.0000    0.0000
  band No.  band energies     occupation 
      1     -20.7398      1.00000
      2     -20.7340      1.00000
      3     -19.3275      1.00000
      4     -19.3218      1.00000
      5     -17.2164      1.00000
      6     -17.0834      1.00000
      7     -16.8986      1.00000
      8     -16.6436      1.00000
      9     -16.3165      1.00000
     10     -15.9166      1.00000
     11     -15.4547      1.00000
     12     -15.1536      1.00000
     13     -15.0275      1.00000
     14     -14.9189      1.00000
     15     -14.8545      1.00000
     16     -14.6160      1.00000
     17     -14.3257      1.00000
     18     -14.3090      1.00000
     19     -13.9338      1.00000
     20     -13.6815      1.00000
     21     -13.5018      1.00000
     22     -13.0502      1.00000
     23     -12.9684      1.00000
     24     -12.5807      1.00000
     25     -12.1553      1.00000
     26     -11.9694      1.00000
     27     -11.0108      1.00000
     28     -10.8832      1.00000
     29     -10.3075      1.00000
     30     -10.1863      1.00000
     31      -9.5165      1.00000
     32      -9.4339      1.00000
     33      -8.7540      1.00000
     34      -8.6753      1.00000
     35      -8.1317      1.00000
     36      -8.0704      1.00000
     37      -7.7529      1.00000
     38      -7.7127      1.00000
     39      -7.6495      1.00000
     40      -7.6381      1.00000
     41      -7.5570      1.00000
     42      -6.8563      1.00000
     43      -6.5110      1.00000
     44      -6.3561      1.00000
     45      -6.3131      1.00000
     46      -6.1894      1.00000
     47      -5.9840      1.00000
     48      -5.8732      1.00000
     49      -5.8490      1.00000
     50      -5.5457      1.00000
     51      -5.3898      1.00000
     52      -5.2862      1.00000
     53      -5.1099      1.00000
     54      -5.0087      1.00000
     55      -4.7627      1.00000
     56      -4.7100      1.00000
     57      -4.5802      1.00000
     58      -4.3930      1.00000
     59      -4.3701      1.00000
     60      -4.2079      1.00000
     61      -4.1992      1.00000
     62      -4.1489      1.00000
     63      -4.0680      1.00000
     64      -4.0515      1.00000
     65      -4.0151      1.00000
     66      -3.8580      1.00000
     67      -3.8270      1.00000
     68      -3.7139      1.00000
     69      -3.6755      1.00000
     70      -3.5759      1.00000
     71      -3.5245      1.00000
     72      -3.4916      1.00000
     73      -3.3501      1.00000
     74      -3.2762      1.00000
     75      -3.2182      1.00000
     76      -3.0388      1.00000
     77      -2.9913      1.00000
     78      -2.8423      1.00000
     79      -2.7458      1.00000
     80      -2.6893      1.00000
     81      -2.6500      1.00000
     82      -2.4648      1.00000
     83      -2.4550      1.00000
     84      -2.3411      1.00000
     85      -2.1960      1.00000
     86      -1.9190      1.00000
     87      -1.8453      1.00000
     88      -1.5870      1.00000
     89      -1.5812      1.00000
     90      -1.5284      1.00000
     91      -1.3555      1.00000
     92      -1.1150      1.00000
     93      -0.8370      1.00000
     94      -0.6899      1.00000
     95      -0.3521      1.00000
     96      -0.2780      1.00000
     97      -0.0049      1.00000
     98       0.0158      1.00000
     99       0.7590      1.00000
    100       0.7645      1.00000
    101       1.8220      0.28008
    102       1.8270      0.23457
    103       3.8605      0.00000
    104       3.8852      0.00000
    105       4.2849      0.00000
    106       4.3896      0.00000
    107       4.7895      0.00000
    108       4.9973      0.00000
    109       5.3257      0.00000
    110       5.5049      0.00000
    111       5.8363      0.00000
    112       5.9016      0.00000
    113       6.0867      0.00000
    114       6.1050      0.00000
    115       6.1825      0.00000
    116       6.2420      0.00000
    117       6.8509      0.00000
    118       7.6491      0.00000
    119       8.0387      0.00000
    120       8.1195      0.00000
    121       8.2233      0.00000
    122       8.3589      0.00000
    123       8.4524      0.00000
    124       8.5948      0.00000
    125       8.9112      0.00000
    126       9.1121      0.00000
    127       9.3070      0.00000
    128       9.4680      0.00000
    129       9.6732      0.00000
    130       9.7088      0.00000
    131       9.7934      0.00000
    132       9.8285      0.00000
    133       9.9185      0.00000
    134      10.0157      0.00000
    135      10.0383      0.00000
    136      10.1001      0.00000
    137      10.1786      0.00000
    138      10.2487      0.00000
    139      10.2828      0.00000
    140      10.3153      0.00000
    141      10.3943      0.00000
    142      10.5613      0.00000
    143      10.5668      0.00000
    144      10.6153      0.00000
    145      10.6774      0.00000
    146      10.7277      0.00000
    147      10.7901      0.00000
    148      10.8110      0.00000
    149      10.9095      0.00000
    150      11.0127      0.00000
    151      11.2113      0.00000
    152      11.3255      0.00000
    153      11.4407      0.00000
    154      11.6400      0.00000
    155      11.8293      0.00000
    156      12.0061      0.00000
    157      12.0201      0.00000
    158      12.0236      0.00000
    159      12.0610      0.00000
    160      12.1405      0.00000
    161      12.1582      0.00000
    162      12.2697      0.00000
    163      12.3159      0.00000
    164      12.3955      0.00000
    165      12.4357      0.00000
    166      12.5678      0.00000
    167      12.6429      0.00000
    168      12.8034      0.00000
    169      12.8476      0.00000
    170      12.8686      0.00000
    171      13.1221      0.00000
    172      13.1480      0.00000
    173      13.2110      0.00000
    174      13.2903      0.00000
    175      13.3964      0.00000
    176      13.4264      0.00000
    177      13.7424      0.00000
    178      13.7975      0.00000
    179      14.1571      0.00000
    180      14.3050      0.00000
    181      14.3224      0.00000
    182      14.4601      0.00000
    183      14.8236      0.00000
    184      15.0201      0.00000
    185      15.0963      0.00000
    186      15.1862      0.00000
    187      15.2205      0.00000
    188      15.4258      0.00000

 k-point     4 :       0.5000    0.0000    0.0000
  band No.  band energies     occupation 
      1     -20.4439      1.00000
      2     -20.4381      1.00000
      3     -19.7139      1.00000
      4     -19.7083      1.00000
      5     -16.3440      1.00000
      6     -16.3440      1.00000
      7     -16.2137      1.00000
      8     -16.2136      1.00000
      9     -16.0336      1.00000
     10     -16.0335      1.00000
     11     -15.7841      1.00000
     12     -15.7841      1.00000
     13     -15.4642      1.00000
     14     -15.4641      1.00000
     15     -15.0732      1.00000
     16     -15.0731      1.00000
     17     -14.6221      1.00000
     18     -14.6221      1.00000
     19     -14.1006      1.00000
     20     -14.1005      1.00000
     21     -13.5307      1.00000
     22     -13.5303      1.00000
     23     -12.9436      1.00000
     24     -12.9434      1.00000
     25     -12.2202      1.00000
     26     -12.2180      1.00000
     27     -11.1228      1.00000
     28     -11.1228      1.00000
     29     -10.3931      1.00000
     30     -10.3926      1.00000
     31      -9.5827      1.00000
     32      -9.5826      1.00000
     33      -8.7458      1.00000
     34      -8.7458      1.00000
     35      -7.9215      1.00000
     36      -7.9211      1.00000
     37      -7.1764      1.00000
     38      -7.1755      1.00000
     39      -6.5465      1.00000
     40      -6.5454      1.00000
     41      -6.0247      1.00000
     42      -6.0247      1.00000
     43      -5.7113      1.00000
     44      -5.7103      1.00000
     45      -5.5756      1.00000
     46      -5.5742      1.00000
     47      -5.5415      1.00000
     48      -5.5413      1.00000
     49      -5.0242      1.00000
     50      -5.0208      1.00000
     51      -4.9211      1.00000
     52      -4.9161      1.00000
     53      -4.7700      1.00000
     54      -4.7699      1.00000
     55      -4.7387      1.00000
     56      -4.7387      1.00000
     57      -4.6754      1.00000
     58      -4.6742      1.00000
     59      -4.6483      1.00000
     60      -4.6480      1.00000
     61      -4.5845      1.00000
     62      -4.5844      1.00000
     63      -4.5626      1.00000
     64      -4.5624      1.00000
     65      -4.3975      1.00000
     66      -4.3971      1.00000
     67      -4.0287      1.00000
     68      -4.0279      1.00000
     69      -3.9791      1.00000
     70      -3.9757      1.00000
     71      -3.6580      1.00000
     72      -3.6562      1.00000
     73      -3.5028      1.00000
     74      -3.5027      1.00000
     75      -3.3970      1.00000
     76      -3.3949      1.00000
     77      -3.3636      1.00000
     78      -3.3632      1.00000
     79      -3.2220      1.00000
     80      -3.2211      1.00000
     81      -2.9694      1.00000
     82      -2.9689      1.00000
     83      -2.6529      1.00000
     84      -2.6523      1.00000
     85      -2.2813      1.00000
     86      -2.2809      1.00000
     87      -1.8564      1.00000
     88      -1.8560      1.00000
     89      -1.5528      1.00000
     90      -1.5475      1.00000
     91      -1.4062      1.00000
     92      -1.4057      1.00000
     93      -0.9402      1.00000
     94      -0.9397      1.00000
     95      -0.5081      1.00000
     96      -0.5067      1.00000
     97      -0.2030      1.00000
     98      -0.2027      1.00000
     99       0.5260      1.00000
    100       0.5316      1.00000
    101       1.7791      0.73581
    102       1.7841      0.68691
    103       4.0456      0.00000
    104       4.0456      0.00000
    105       4.5345      0.00000
    106       4.5352      0.00000
    107       5.1612      0.00000
    108       5.1615      0.00000
    109       5.8462      0.00000
    110       5.8464      0.00000
    111       6.5232      0.00000
    112       6.5234      0.00000
    113       7.1472      0.00000
    114       7.1473      0.00000
    115       7.6691      0.00000
    116       7.6692      0.00000
    117       8.0707      0.00000
    118       8.0708      0.00000
    119       8.3438      0.00000
    120       8.3438      0.00000
    121       8.5126      0.00000
    122       8.5133      0.00000
    123       8.5716      0.00000
    124       8.5719      0.00000
    125       9.1488      0.00000
    126       9.1532      0.00000
    127       9.5558      0.00000
    128       9.5560      0.00000
    129       9.5884      0.00000
    130       9.5888      0.00000
    131       9.7498      0.00000
    132       9.7508      0.00000
    133       9.8462      0.00000
    134       9.8470      0.00000
    135       9.9962      0.00000
    136       9.9969      0.00000
    137      10.0709      0.00000
    138      10.0733      0.00000
    139      10.1374      0.00000
    140      10.1377      0.00000
    141      10.2914      0.00000
    142      10.2917      0.00000
    143      10.3890      0.00000
    144      10.3897      0.00000
    145      10.5252      0.00000
    146      10.5254      0.00000
    147      10.5965      0.00000
    148      10.5968      0.00000
    149      10.8606      0.00000
    150      10.8608      0.00000
    151      11.0997      0.00000
    152      11.1002      0.00000
    153      11.1723      0.00000
    154      11.1725      0.00000
    155      11.4780      0.00000
    156      11.4783      0.00000
    157      11.5361      0.00000
    158      11.5373      0.00000
    159      11.5981      0.00000
    160      11.5985      0.00000
    161      11.7171      0.00000
    162      11.7171      0.00000
    163      11.9770      0.00000
    164      11.9771      0.00000
    165      12.0608      0.00000
    166      12.0616      0.00000
    167      12.3911      0.00000
    168      12.3912      0.00000
    169      12.9062      0.00000
    170      12.9064      0.00000
    171      13.0201      0.00000
    172      13.0211      0.00000
    173      13.5456      0.00000
    174      13.5471      0.00000
    175      13.6532      0.00000
    176      13.6544      0.00000
    177      13.7493      0.00000
    178      13.7498      0.00000
    179      14.0598      0.00000
    180      14.0837      0.00000
    181      14.4039      0.00000
    182      14.4664      0.00000
    183      14.4806      0.00000
    184      14.6521      0.00000
    185      15.0447      0.00000
    186      15.1847      0.00000
    187      15.2562      0.00000
    188      15.5349      0.00000

 k-point     5 :       0.0000    0.0000    0.5000
  band No.  band energies     occupation 
      1     -21.0365      1.00000
      2     -21.0308      1.00000
      3     -18.6318      1.00000
      4     -18.6262      1.00000
      5     -17.4813      1.00000
      6     -17.3500      1.00000
      7     -17.1681      1.00000
      8     -16.9168      1.00000
      9     -16.5942      1.00000
     10     -16.1992      1.00000
     11     -15.7428      1.00000
     12     -15.2120      1.00000
     13     -14.6232      1.00000
     14     -13.9771      1.00000
     15     -13.2826      1.00000
     16     -12.5531      1.00000
     17     -12.5407      1.00000
     18     -12.4271      1.00000
     19     -12.2735      1.00000
     20     -12.0592      1.00000
     21     -11.8198      1.00000
     22     -11.7816      1.00000
     23     -11.4870      1.00000
     24     -11.4386      1.00000
     25     -11.4049      1.00000
     26     -11.3304      1.00000
     27     -11.1689      1.00000
     28     -11.1331      1.00000
     29     -11.0387      1.00000
     30     -10.9519      1.00000
     31     -10.7746      1.00000
     32     -10.6566      1.00000
     33     -10.6043      1.00000
     34     -10.5664      1.00000
     35     -10.0405      1.00000
     36      -9.4573      1.00000
     37      -8.8206      1.00000
     38      -8.6691      1.00000
     39      -8.6650      1.00000
     40      -8.3532      1.00000
     41      -8.2073      1.00000
     42      -8.1335      1.00000
     43      -7.9044      1.00000
     44      -7.5083      1.00000
     45      -7.4019      1.00000
     46      -7.3587      1.00000
     47      -6.9784      1.00000
     48      -6.8690      1.00000
     49      -6.8398      1.00000
     50      -6.7266      1.00000
     51      -6.6546      1.00000
     52      -6.6339      1.00000
     53      -6.5126      1.00000
     54      -6.2208      1.00000
     55      -6.2201      1.00000
     56      -5.8939      1.00000
     57      -5.8562      1.00000
     58      -5.8482      1.00000
     59      -5.6026      1.00000
     60      -5.4179      1.00000
     61      -5.2179      1.00000
     62      -5.0588      1.00000
     63      -5.0213      1.00000
     64      -4.9063      1.00000
     65      -4.7194      1.00000
     66      -4.5309      1.00000
     67      -4.3443      1.00000
     68      -4.3227      1.00000
     69      -4.1842      1.00000
     70      -3.7668      1.00000
     71      -3.7196      1.00000
     72      -3.6966      1.00000
     73      -3.2347      1.00000
     74      -3.1994      1.00000
     75      -3.0398      1.00000
     76      -2.7278      1.00000
     77      -2.6760      1.00000
     78      -2.3085      1.00000
     79      -2.2050      1.00000
     80      -2.1590      1.00000
     81      -1.7284      1.00000
     82      -1.7022      1.00000
     83      -1.5912      1.00000
     84      -1.5837      1.00000
     85      -1.5353      1.00000
     86      -1.4062      1.00000
     87      -1.3562      1.00000
     88      -1.1387      1.00000
     89      -1.1157      1.00000
     90      -0.7332      1.00000
     91      -0.0574      1.00000
     92       0.0777      1.00000
     93       0.1047      1.00000
     94       0.3394      1.00000
     95       0.6590      1.00000
     96       0.8702      1.00000
     97       1.0605      1.00000
     98       1.3759      1.00000
     99       1.3812      1.00000
    100       1.5419      1.00000
    101       1.6052      1.00000
    102       2.0863      0.00000
    103       2.2607      0.00000
    104       2.7159      0.00000
    105       2.8116      0.00000
    106       3.2329      0.00000
    107       3.3981      0.00000
    108       3.5280      0.00000
    109       3.7185      0.00000
    110       3.8438      0.00000
    111       3.8717      0.00000
    112       4.1394      0.00000
    113       4.9336      0.00000
    114       5.7754      0.00000
    115       6.6555      0.00000
    116       7.5626      0.00000
    117       8.4862      0.00000
    118       9.4027      0.00000
    119       9.5519      0.00000
    120       9.7580      0.00000
    121      10.1518      0.00000
    122      10.2005      0.00000
    123      10.2135      0.00000
    124      10.2524      0.00000
    125      10.2780      0.00000
    126      10.4166      0.00000
    127      10.5125      0.00000
    128      10.5231      0.00000
    129      10.9315      0.00000
    130      10.9350      0.00000
    131      10.9870      0.00000
    132      11.2676      0.00000
    133      11.3620      0.00000
    134      11.5527      0.00000
    135      11.5555      0.00000
    136      11.9790      0.00000
    137      12.0724      0.00000
    138      12.0946      0.00000
    139      12.1184      0.00000
    140      12.1194      0.00000
    141      12.1814      0.00000
    142      12.2804      0.00000
    143      12.2965      0.00000
    144      12.4856      0.00000
    145      12.4934      0.00000
    146      12.5984      0.00000
    147      12.6209      0.00000
    148      12.6307      0.00000
    149      12.6833      0.00000
    150      12.7772      0.00000
    151      12.8089      0.00000
    152      13.0166      0.00000
    153      13.0549      0.00000
    154      13.0708      0.00000
    155      13.0993      0.00000
    156      13.1632      0.00000
    157      13.2897      0.00000
    158      13.3410      0.00000
    159      13.3574      0.00000
    160      13.3665      0.00000
    161      13.4887      0.00000
    162      13.5416      0.00000
    163      13.5876      0.00000
    164      13.6737      0.00000
    165      13.6937      0.00000
    166      13.6963      0.00000
    167      13.7429      0.00000
    168      13.7588      0.00000
    169      13.8441      0.00000
    170      13.9096      0.00000
    171      14.0098      0.00000
    172      14.0815      0.00000
    173      14.1140      0.00000
    174      14.1496      0.00000
    175      14.3268      0.00000
    176      14.3536      0.00000
    177      14.3845      0.00000
    178      14.4305      0.00000
    179      14.6738      0.00000
    180      14.7131      0.00000
    181      14.7548      0.00000
    182      14.7960      0.00000
    183      14.8263      0.00000
    184      14.8879      0.00000
    185      14.9424      0.00000
    186      15.0281      0.00000
    187      15.2275      0.00000
    188      15.9656      0.00000

 k-point     6 :       0.1667    0.0000    0.5000
  band No.  band energies     occupation 
      1     -20.9299      1.00000
      2     -20.9242      1.00000
      3     -18.8387      1.00000
      4     -18.8331      1.00000
      5     -17.3335      1.00000
      6     -17.2025      1.00000
      7     -17.0209      1.00000
      8     -16.7701      1.00000
      9     -16.4480      1.00000
     10     -16.0537      1.00000
     11     -15.5980      1.00000
     12     -15.0681      1.00000
     13     -14.4806      1.00000
     14     -13.8367      1.00000
     15     -13.7545      1.00000
     16     -13.6349      1.00000
     17     -13.4731      1.00000
     18     -13.2493      1.00000
     19     -13.1470      1.00000
     20     -12.9614      1.00000
     21     -12.6110      1.00000
     22     -12.4348      1.00000
     23     -12.2142      1.00000
     24     -11.8699      1.00000
     25     -11.6218      1.00000
     26     -11.4099      1.00000
     27     -10.4863      1.00000
     28     -10.4164      1.00000
     29     -10.0252      1.00000
     30      -9.9649      1.00000
     31      -9.9530      1.00000
     32      -9.9005      1.00000
     33      -9.7512      1.00000
     34      -9.7493      1.00000
     35      -9.5391      1.00000
     36      -9.5090      1.00000
     37      -9.4469      1.00000
     38      -8.9174      1.00000
     39      -8.2444      1.00000
     40      -7.9741      1.00000
     41      -7.8165      1.00000
     42      -7.7100      1.00000
     43      -7.5622      1.00000
     44      -7.2942      1.00000
     45      -7.1817      1.00000
     46      -7.0579      1.00000
     47      -6.7135      1.00000
     48      -6.6083      1.00000
     49      -6.5519      1.00000
     50      -6.5396      1.00000
     51      -6.4749      1.00000
     52      -6.4710      1.00000
     53      -6.2621      1.00000
     54      -6.0161      1.00000
     55      -5.9740      1.00000
     56      -5.7803      1.00000
     57      -5.7257      1.00000
     58      -5.6118      1.00000
     59      -5.4460      1.00000
     60      -5.1796      1.00000
     61      -5.1726      1.00000
     62      -4.9877      1.00000
     63      -4.8431      1.00000
     64      -4.6918      1.00000
     65      -4.6775      1.00000
     66      -4.4916      1.00000
     67      -4.2641      1.00000
     68      -4.2171      1.00000
     69      -4.1234      1.00000
     70      -3.9296      1.00000
     71      -3.6310      1.00000
     72      -3.5405      1.00000
     73      -3.5107      1.00000
     74      -3.1646      1.00000
     75      -3.0674      1.00000
     76      -2.8488      1.00000
     77      -2.7457      1.00000
     78      -2.5511      1.00000
     79      -2.3553      1.00000
     80      -2.1646      1.00000
     81      -2.0898      1.00000
     82      -2.0461      1.00000
     83      -1.9743      1.00000
     84      -1.9389      1.00000
     85      -1.8504      1.00000
     86      -1.6760      1.00000
     87      -1.4459      1.00000
     88      -1.4402      1.00000
     89      -1.3946      1.00000
     90      -1.1711      1.00000
     91      -1.0127      1.00000
     92      -0.7950      1.00000
     93      -0.6818      1.00000
     94      -0.5110      1.00000
     95      -0.1816      1.00000
     96      -0.0724      1.00000
     97       0.1540      1.00000
     98       0.2608      1.00000
     99       1.1659      1.00000
    100       1.1712      1.00000
    101       1.5339      1.00000
    102       1.5509      1.00000
    103       3.0665      0.00000
    104       3.1119      0.00000
    105       3.5241      0.00000
    106       3.6697      0.00000
    107       4.0353      0.00000
    108       4.2683      0.00000
    109       4.5633      0.00000
    110       4.6771      0.00000
    111       4.9245      0.00000
    112       5.0278      0.00000
    113       5.0928      0.00000
    114       5.3219      0.00000
    115       6.1342      0.00000
    116       7.0189      0.00000
    117       7.9340      0.00000
    118       8.8495      0.00000
    119       9.5877      0.00000
    120       9.6988      0.00000
    121       9.7610      0.00000
    122      10.0008      0.00000
    123      10.0447      0.00000
    124      10.1309      0.00000
    125      10.1354      0.00000
    126      10.1832      0.00000
    127      10.2103      0.00000
    128      10.3287      0.00000
    129      10.3842      0.00000
    130      10.5769      0.00000
    131      10.6745      0.00000
    132      10.7671      0.00000
    133      10.8919      0.00000
    134      10.9880      0.00000
    135      11.0927      0.00000
    136      11.3327      0.00000
    137      11.4266      0.00000
    138      11.5734      0.00000
    139      11.6416      0.00000
    140      11.9188      0.00000
    141      11.9253      0.00000
    142      12.0592      0.00000
    143      12.1542      0.00000
    144      12.2487      0.00000
    145      12.4222      0.00000
    146      12.5287      0.00000
    147      12.5517      0.00000
    148      12.5528      0.00000
    149      12.5859      0.00000
    150      12.6474      0.00000
    151      12.7997      0.00000
    152      12.8858      0.00000
    153      12.9123      0.00000
    154      12.9548      0.00000
    155      13.1201      0.00000
    156      13.1449      0.00000
    157      13.2215      0.00000
    158      13.2602      0.00000
    159      13.3424      0.00000
    160      13.4184      0.00000
    161      13.4792      0.00000
    162      13.5144      0.00000
    163      13.5592      0.00000
    164      13.6849      0.00000
    165      13.7659      0.00000
    166      13.7846      0.00000
    167      13.8146      0.00000
    168      13.8342      0.00000
    169      14.0090      0.00000
    170      14.0769      0.00000
    171      14.1970      0.00000
    172      14.2149      0.00000
    173      14.2285      0.00000
    174      14.3323      0.00000
    175      14.4570      0.00000
    176      14.4928      0.00000
    177      14.5306      0.00000
    178      14.5862      0.00000
    179      14.6204      0.00000
    180      14.6944      0.00000
    181      14.7459      0.00000
    182      14.8297      0.00000
    183      14.9765      0.00000
    184      15.0530      0.00000
    185      15.2004      0.00000
    186      15.2764      0.00000
    187      15.4138      0.00000
    188      15.4915      0.00000

 k-point     7 :       0.3333    0.0000    0.5000
  band No.  band energies     occupation 
      1     -20.6379      1.00000
      2     -20.6321      1.00000
      3     -19.3179      1.00000
      4     -19.3123      1.00000
      5     -16.8882      1.00000
      6     -16.7578      1.00000
      7     -16.5775      1.00000
      8     -16.3284      1.00000
      9     -16.0083      1.00000
     10     -15.6163      1.00000
     11     -15.1635      1.00000
     12     -15.0893      1.00000
     13     -14.9635      1.00000
     14     -14.7916      1.00000
     15     -14.6372      1.00000
     16     -14.5537      1.00000
     17     -14.2477      1.00000
     18     -14.0556      1.00000
     19     -13.8730      1.00000
     20     -13.4527      1.00000
     21     -13.4125      1.00000
     22     -12.9586      1.00000
     23     -12.7568      1.00000
     24     -12.4732      1.00000
     25     -11.9863      1.00000
     26     -11.8661      1.00000
     27     -10.8637      1.00000
     28     -10.8175      1.00000
     29     -10.1471      1.00000
     30     -10.1373      1.00000
     31      -9.3934      1.00000
     32      -9.3776      1.00000
     33      -8.6686      1.00000
     34      -8.6502      1.00000
     35      -8.1260      1.00000
     36      -8.1090      1.00000
     37      -7.9018      1.00000
     38      -7.8641      1.00000
     39      -7.8136      1.00000
     40      -7.7831      1.00000
     41      -7.5632      1.00000
     42      -6.8572      1.00000
     43      -6.5891      1.00000
     44      -6.4168      1.00000
     45      -6.3713      1.00000
     46      -6.2956      1.00000
     47      -5.9809      1.00000
     48      -5.9450      1.00000
     49      -5.9340      1.00000
     50      -5.8689      1.00000
     51      -5.8474      1.00000
     52      -5.7312      1.00000
     53      -5.6207      1.00000
     54      -5.5345      1.00000
     55      -5.4077      1.00000
     56      -5.2844      1.00000
     57      -5.2580      1.00000
     58      -5.1052      1.00000
     59      -5.0596      1.00000
     60      -4.9151      1.00000
     61      -4.7452      1.00000
     62      -4.7414      1.00000
     63      -4.5620      1.00000
     64      -4.5046      1.00000
     65      -4.4144      1.00000
     66      -4.3772      1.00000
     67      -4.1249      1.00000
     68      -4.0965      1.00000
     69      -4.0753      1.00000
     70      -4.0300      1.00000
     71      -3.8883      1.00000
     72      -3.7763      1.00000
     73      -3.7283      1.00000
     74      -3.6069      1.00000
     75      -3.5672      1.00000
     76      -3.5397      1.00000
     77      -3.4194      1.00000
     78      -3.2794      1.00000
     79      -3.1692      1.00000
     80      -3.0707      1.00000
     81      -3.0307      1.00000
     82      -2.9906      1.00000
     83      -2.7775      1.00000
     84      -2.7716      1.00000
     85      -2.7478      1.00000
     86      -2.5055      1.00000
     87      -2.4607      1.00000
     88      -2.2736      1.00000
     89      -2.1614      1.00000
     90      -1.8592      1.00000
     91      -1.6356      1.00000
     92      -1.6192      1.00000
     93      -1.6132      1.00000
     94      -1.4651      1.00000
     95      -1.1131      1.00000
     96      -1.0922      1.00000
     97      -0.8013      1.00000
     98      -0.7831      1.00000
     99       0.7218      1.00000
    100       0.7273      1.00000
    101       1.2316      1.00000
    102       1.2397      1.00000
    103       3.2210      0.00000
    104       3.3010      0.00000
    105       3.7070      0.00000
    106       3.9287      0.00000
    107       4.3491      0.00000
    108       4.6751      0.00000
    109       5.0805      0.00000
    110       5.4285      0.00000
    111       5.8694      0.00000
    112       6.0791      0.00000
    113       6.5817      0.00000
    114       6.6992      0.00000
    115       6.9549      0.00000
    116       7.1382      0.00000
    117       7.2435      0.00000
    118       7.6337      0.00000
    119       8.5047      0.00000
    120       9.2858      0.00000
    121       9.3025      0.00000
    122       9.3170      0.00000
    123       9.4772      0.00000
    124       9.4806      0.00000
    125       9.6268      0.00000
    126       9.7438      0.00000
    127       9.8194      0.00000
    128       9.8498      0.00000
    129       9.9713      0.00000
    130      10.1446      0.00000
    131      10.1815      0.00000
    132      10.2373      0.00000
    133      10.2824      0.00000
    134      10.4188      0.00000
    135      10.5150      0.00000
    136      10.6782      0.00000
    137      10.7621      0.00000
    138      10.8424      0.00000
    139      11.1521      0.00000
    140      11.1948      0.00000
    141      11.3002      0.00000
    142      11.3949      0.00000
    143      11.6510      0.00000
    144      11.8873      0.00000
    145      11.9819      0.00000
    146      12.1147      0.00000
    147      12.2028      0.00000
    148      12.3197      0.00000
    149      12.4795      0.00000
    150      12.5342      0.00000
    151      12.5847      0.00000
    152      12.8056      0.00000
    153      12.8935      0.00000
    154      12.9277      0.00000
    155      13.0097      0.00000
    156      13.0406      0.00000
    157      13.0811      0.00000
    158      13.1629      0.00000
    159      13.2109      0.00000
    160      13.2247      0.00000
    161      13.2768      0.00000
    162      13.3665      0.00000
    163      13.4585      0.00000
    164      13.4707      0.00000
    165      13.5889      0.00000
    166      13.6999      0.00000
    167      13.8212      0.00000
    168      13.8666      0.00000
    169      13.9060      0.00000
    170      14.0013      0.00000
    171      14.0726      0.00000
    172      14.1965      0.00000
    173      14.3227      0.00000
    174      14.4102      0.00000
    175      14.4928      0.00000
    176      14.5138      0.00000
    177      14.5976      0.00000
    178      14.6212      0.00000
    179      14.8806      0.00000
    180      14.9553      0.00000
    181      15.0403      0.00000
    182      15.1088      0.00000
    183      15.1683      0.00000
    184      15.2088      0.00000
    185      15.2548      0.00000
    186      15.5513      0.00000
    187      15.6900      0.00000
    188      15.8430      0.00000

 k-point     8 :       0.5000    0.0000    0.5000
  band No.  band energies     occupation 
      1     -20.3785      1.00000
      2     -20.3728      1.00000
      3     -19.6652      1.00000
      4     -19.6595      1.00000
      5     -16.1405      1.00000
      6     -16.1405      1.00000
      7     -16.0120      1.00000
      8     -16.0119      1.00000
      9     -15.8345      1.00000
     10     -15.8345      1.00000
     11     -15.5886      1.00000
     12     -15.5885      1.00000
     13     -15.2729      1.00000
     14     -15.2728      1.00000
     15     -14.8867      1.00000
     16     -14.8866      1.00000
     17     -14.4409      1.00000
     18     -14.4408      1.00000
     19     -13.9248      1.00000
     20     -13.9247      1.00000
     21     -13.3601      1.00000
     22     -13.3598      1.00000
     23     -12.7760      1.00000
     24     -12.7758      1.00000
     25     -12.0689      1.00000
     26     -12.0668      1.00000
     27     -10.9945      1.00000
     28     -10.9945      1.00000
     29     -10.2711      1.00000
     30     -10.2706      1.00000
     31      -9.4713      1.00000
     32      -9.4713      1.00000
     33      -8.6500      1.00000
     34      -8.6499      1.00000
     35      -7.8500      1.00000
     36      -7.8495      1.00000
     37      -7.1406      1.00000
     38      -7.1395      1.00000
     39      -6.5409      1.00000
     40      -6.5399      1.00000
     41      -6.0560      1.00000
     42      -6.0558      1.00000
     43      -5.8032      1.00000
     44      -5.8022      1.00000
     45      -5.7107      1.00000
     46      -5.7092      1.00000
     47      -5.6917      1.00000
     48      -5.6916      1.00000
     49      -5.1022      1.00000
     50      -5.0989      1.00000
     51      -4.9742      1.00000
     52      -4.9693      1.00000
     53      -4.8831      1.00000
     54      -4.8815      1.00000
     55      -4.8584      1.00000
     56      -4.8568      1.00000
     57      -4.8345      1.00000
     58      -4.8330      1.00000
     59      -4.7545      1.00000
     60      -4.7539      1.00000
     61      -4.7165      1.00000
     62      -4.7157      1.00000
     63      -4.6796      1.00000
     64      -4.6794      1.00000
     65      -4.6552      1.00000
     66      -4.6550      1.00000
     67      -4.6530      1.00000
     68      -4.6528      1.00000
     69      -4.5096      1.00000
     70      -4.5083      1.00000
     71      -4.3883      1.00000
     72      -4.3879      1.00000
     73      -4.3033      1.00000
     74      -4.3025      1.00000
     75      -4.0349      1.00000
     76      -4.0343      1.00000
     77      -3.9716      1.00000
     78      -3.9704      1.00000
     79      -3.6890      1.00000
     80      -3.6884      1.00000
     81      -3.6142      1.00000
     82      -3.6124      1.00000
     83      -3.3295      1.00000
     84      -3.3292      1.00000
     85      -3.2836      1.00000
     86      -3.2831      1.00000
     87      -2.8358      1.00000
     88      -2.8354      1.00000
     89      -2.3609      1.00000
     90      -2.3606      1.00000
     91      -1.8778      1.00000
     92      -1.8774      1.00000
     93      -1.5815      1.00000
     94      -1.5763      1.00000
     95      -1.4384      1.00000
     96      -1.4367      1.00000
     97      -1.1404      1.00000
     98      -1.1396      1.00000
     99       0.4813      1.00000
    100       0.4869      1.00000
    101       1.1362      1.00000
    102       1.1412      1.00000
    103       3.2201      0.00000
    104       3.2202      0.00000
    105       3.7918      0.00000
    106       3.7925      0.00000
    107       4.5296      0.00000
    108       4.5300      0.00000
    109       5.3523      0.00000
    110       5.3525      0.00000
    111       6.1992      0.00000
    112       6.1994      0.00000
    113       7.0263      0.00000
    114       7.0265      0.00000
    115       7.7769      0.00000
    116       7.7771      0.00000
    117       8.4122      0.00000
    118       8.4124      0.00000
    119       8.8999      0.00000
    120       8.9000      0.00000
    121       8.9906      0.00000
    122       8.9906      0.00000
    123       9.1915      0.00000
    124       9.1918      0.00000
    125       9.2329      0.00000
    126       9.2333      0.00000
    127       9.3924      0.00000
    128       9.3925      0.00000
    129       9.4755      0.00000
    130       9.4758      0.00000
    131       9.7695      0.00000
    132       9.7710      0.00000
    133      10.0612      0.00000
    134      10.0615      0.00000
    135      10.1430      0.00000
    136      10.1431      0.00000
    137      10.5576      0.00000
    138      10.5578      0.00000
    139      10.6392      0.00000
    140      10.6400      0.00000
    141      11.1596      0.00000
    142      11.1604      0.00000
    143      11.2863      0.00000
    144      11.2865      0.00000
    145      11.7459      0.00000
    146      11.7480      0.00000
    147      12.2726      0.00000
    148      12.2756      0.00000
    149      12.3502      0.00000
    150      12.3529      0.00000
    151      12.8800      0.00000
    152      12.8800      0.00000
    153      12.9531      0.00000
    154      12.9538      0.00000
    155      12.9925      0.00000
    156      12.9930      0.00000
    157      13.1623      0.00000
    158      13.1628      0.00000
    159      13.1800      0.00000
    160      13.1803      0.00000
    161      13.3508      0.00000
    162      13.3513      0.00000
    163      13.5135      0.00000
    164      13.5140      0.00000
    165      13.6472      0.00000
    166      13.6477      0.00000
    167      13.7253      0.00000
    168      13.7263      0.00000
    169      13.8886      0.00000
    170      13.8897      0.00000
    171      14.1771      0.00000
    172      14.1822      0.00000
    173      14.2267      0.00000
    174      14.2277      0.00000
    175      14.5059      0.00000
    176      14.5079      0.00000
    177      14.7188      0.00000
    178      14.7335      0.00000
    179      14.7704      0.00000
    180      14.8985      0.00000
    181      14.9509      0.00000
    182      14.9812      0.00000
    183      15.4114      0.00000
    184      15.4628      0.00000
    185      15.5286      0.00000
    186      16.3758      0.00000
    187      17.6889      0.00000
    188      18.3858      0.00000

 spin component 2

 k-point     1 :       0.0000    0.0000    0.0000
  band No.  band energies     occupation 
      1     -20.6057      1.00000
      2     -20.6000      1.00000
      3     -17.9271      1.00000
      4     -17.9139      1.00000
      5     -17.9083      1.00000
      6     -17.7894      1.00000
      7     -17.5970      1.00000
      8     -17.3329      1.00000
      9     -16.9960      1.00000
     10     -16.5855      1.00000
     11     -16.1127      1.00000
     12     -15.5648      1.00000
     13     -14.9575      1.00000
     14     -14.2909      1.00000
     15     -13.5732      1.00000
     16     -12.8158      1.00000
     17     -12.3686      1.00000
     18     -12.2545      1.00000
     19     -12.1003      1.00000
     20     -12.0405      1.00000
     21     -11.8861      1.00000
     22     -11.6097      1.00000
     23     -11.3557      1.00000
     24     -11.3002      1.00000
     25     -11.2689      1.00000
     26     -11.2624      1.00000
     27     -11.1505      1.00000
     28     -11.0030      1.00000
     29     -10.8723      1.00000
     30     -10.8132      1.00000
     31     -10.7302      1.00000
     32     -10.6200      1.00000
     33     -10.5274      1.00000
     34     -10.4042      1.00000
     35      -9.8832      1.00000
     36      -9.3051      1.00000
     37      -8.6741      1.00000
     38      -8.6606      1.00000
     39      -8.5793      1.00000
     40      -8.2767      1.00000
     41      -8.1829      1.00000
     42      -7.9932      1.00000
     43      -7.7087      1.00000
     44      -7.6156      1.00000
     45      -7.2676      1.00000
     46      -7.1680      1.00000
     47      -6.8469      1.00000
     48      -6.5679      1.00000
     49      -6.5039      1.00000
     50      -6.1280      1.00000
     51      -5.9004      1.00000
     52      -5.7229      1.00000
     53      -5.4921      1.00000
     54      -5.2411      1.00000
     55      -4.9367      1.00000
     56      -4.9271      1.00000
     57      -4.7492      1.00000
     58      -4.4521      1.00000
     59      -4.4152      1.00000
     60      -4.4038      1.00000
     61      -4.3116      1.00000
     62      -4.1665      1.00000
     63      -4.1219      1.00000
     64      -4.0397      1.00000
     65      -3.8586      1.00000
     66      -3.5820      1.00000
     67      -3.5248      1.00000
     68      -3.4853      1.00000
     69      -3.1286      1.00000
     70      -3.0405      1.00000
     71      -2.9423      1.00000
     72      -2.6667      1.00000
     73      -2.5030      1.00000
     74      -2.4858      1.00000
     75      -2.1594      1.00000
     76      -2.0640      1.00000
     77      -1.9769      1.00000
     78      -1.7560      1.00000
     79      -1.7501      1.00000
     80      -1.6250      1.00000
     81      -1.5978      1.00000
     82      -1.5562      1.00000
     83      -1.3126      1.00000
     84      -1.2909      1.00000
     85      -1.0187      1.00000
     86      -0.9986      1.00000
     87      -0.8406      1.00000
     88      -0.5861      1.00000
     89      -0.4906      1.00000
     90      -0.4849      1.00000
     91      -0.3697      1.00000
     92      -0.2410      1.00000
     93       0.1808      1.00000
     94       0.2720      1.00000
     95       0.6831      1.00000
     96       0.9047      1.00000
     97       1.2480      1.00000
     98       1.4995      1.00000
     99       1.8985      0.00301
    100       2.0243      0.00000
    101       2.4404      0.00000
    102       2.6031      0.00000
    103       2.7373      0.00000
    104       2.9193      0.00000
    105       2.9891      0.00000
    106       3.0219      0.00000
    107       3.0284      0.00000
    108       3.1488      0.00000
    109       3.1541      0.00000
    110       3.3686      0.00000
    111       3.4124      0.00000
    112       3.4177      0.00000
    113       4.1886      0.00000
    114       5.0579      0.00000
    115       5.9682      0.00000
    116       6.5906      0.00000
    117       6.7114      0.00000
    118       6.8662      0.00000
    119       6.9099      0.00000
    120       7.0783      0.00000
    121       7.3483      0.00000
    122       7.6678      0.00000
    123       7.8732      0.00000
    124       8.0169      0.00000
    125       8.4023      0.00000
    126       8.7644      0.00000
    127       8.8624      0.00000
    128       9.1231      0.00000
    129       9.3301      0.00000
    130       9.4339      0.00000
    131       9.7069      0.00000
    132       9.7887      0.00000
    133      10.0202      0.00000
    134      10.2518      0.00000
    135      10.2958      0.00000
    136      10.3084      0.00000
    137      10.3809      0.00000
    138      10.4595      0.00000
    139      10.5120      0.00000
    140      10.5638      0.00000
    141      10.6415      0.00000
    142      10.9090      0.00000
    143      11.0278      0.00000
    144      11.1273      0.00000
    145      11.2722      0.00000
    146      11.3400      0.00000
    147      11.3503      0.00000
    148      11.4755      0.00000
    149      11.5562      0.00000
    150      11.7138      0.00000
    151      11.8848      0.00000
    152      12.2119      0.00000
    153      12.2511      0.00000
    154      12.2746      0.00000
    155      12.3014      0.00000
    156      12.4727      0.00000
    157      12.6584      0.00000
    158      12.6761      0.00000
    159      12.7224      0.00000
    160      12.7984      0.00000
    161      12.9265      0.00000
    162      12.9367      0.00000
    163      12.9896      0.00000
    164      13.0164      0.00000
    165      13.0521      0.00000
    166      13.1556      0.00000
    167      13.1843      0.00000
    168      13.3216      0.00000
    169      13.4178      0.00000
    170      13.6071      0.00000
    171      13.6269      0.00000
    172      13.6469      0.00000
    173      13.7440      0.00000
    174      13.8700      0.00000
    175      13.9157      0.00000
    176      13.9475      0.00000
    177      13.9737      0.00000
    178      14.1414      0.00000
    179      14.1895      0.00000
    180      14.2887      0.00000
    181      14.4683      0.00000
    182      14.5271      0.00000
    183      14.7490      0.00000
    184      14.8556      0.00000
    185      15.0120      0.00000
    186      15.1223      0.00000
    187      15.3000      0.00000
    188      15.4148      0.00000

 k-point     2 :       0.1667    0.0000    0.0000
  band No.  band energies     occupation 
      1     -20.4858      1.00000
      2     -20.4800      1.00000
      3     -18.1418      1.00000
      4     -18.1361      1.00000
      5     -17.7483      1.00000
      6     -17.6111      1.00000
      7     -17.4194      1.00000
      8     -17.1564      1.00000
      9     -16.8207      1.00000
     10     -16.4117      1.00000
     11     -15.9405      1.00000
     12     -15.3946      1.00000
     13     -14.7897      1.00000
     14     -14.1267      1.00000
     15     -13.6887      1.00000
     16     -13.5673      1.00000
     17     -13.4155      1.00000
     18     -13.4026      1.00000
     19     -13.1762      1.00000
     20     -12.8873      1.00000
     21     -12.6753      1.00000
     22     -12.5374      1.00000
     23     -12.1492      1.00000
     24     -12.0021      1.00000
     25     -11.5808      1.00000
     26     -11.3853      1.00000
     27     -10.5595      1.00000
     28     -10.3703      1.00000
     29      -9.9750      1.00000
     30      -9.8405      1.00000
     31      -9.7975      1.00000
     32      -9.7381      1.00000
     33      -9.6090      1.00000
     34      -9.5548      1.00000
     35      -9.4635      1.00000
     36      -9.3800      1.00000
     37      -9.3194      1.00000
     38      -8.8276      1.00000
     39      -8.1559      1.00000
     40      -7.8361      1.00000
     41      -7.7996      1.00000
     42      -7.5170      1.00000
     43      -7.4263      1.00000
     44      -7.3414      1.00000
     45      -7.0455      1.00000
     46      -6.8798      1.00000
     47      -6.5965      1.00000
     48      -6.3895      1.00000
     49      -6.3602      1.00000
     50      -5.8415      1.00000
     51      -5.8297      1.00000
     52      -5.6277      1.00000
     53      -5.2840      1.00000
     54      -5.1843      1.00000
     55      -4.8989      1.00000
     56      -4.7189      1.00000
     57      -4.6915      1.00000
     58      -4.4275      1.00000
     59      -4.3658      1.00000
     60      -4.3242      1.00000
     61      -4.2319      1.00000
     62      -4.1189      1.00000
     63      -4.0805      1.00000
     64      -4.0417      1.00000
     65      -3.7827      1.00000
     66      -3.7456      1.00000
     67      -3.4723      1.00000
     68      -3.4457      1.00000
     69      -3.3257      1.00000
     70      -3.0604      1.00000
     71      -2.9394      1.00000
     72      -2.9205      1.00000
     73      -2.6135      1.00000
     74      -2.5792      1.00000
     75      -2.4267      1.00000
     76      -2.2445      1.00000
     77      -2.1691      1.00000
     78      -2.0225      1.00000
     79      -2.0047      1.00000
     80      -1.9515      1.00000
     81      -1.9284      1.00000
     82      -1.7908      1.00000
     83      -1.6382      1.00000
     84      -1.6355      1.00000
     85      -1.5073      1.00000
     86      -1.4556      1.00000
     87      -1.2043      1.00000
     88      -0.9433      1.00000
     89      -0.8835      1.00000
     90      -0.5544      1.00000
     91      -0.5434      1.00000
     92      -0.4926      1.00000
     93      -0.3569      1.00000
     94      -0.0737      1.00000
     95       0.1984      1.00000
     96       0.3483      1.00000
     97       0.6194      1.00000
     98       0.6710      1.00000
     99       2.1599      0.00000
    100       2.1704      0.00000
    101       2.8604      0.00000
    102       2.8658      0.00000
    103       3.1791      0.00000
    104       3.2584      0.00000
    105       3.5421      0.00000
    106       3.6436      0.00000
    107       3.8870      0.00000
    108       3.9423      0.00000
    109       4.0115      0.00000
    110       4.0303      0.00000
    111       4.0554      0.00000
    112       4.2396      0.00000
    113       4.4109      0.00000
    114       4.9681      0.00000
    115       5.7757      0.00000
    116       6.6592      0.00000
    117       6.9659      0.00000
    118       7.0834      0.00000
    119       7.2318      0.00000
    120       7.4336      0.00000
    121       7.5784      0.00000
    122       7.6924      0.00000
    123       7.9988      0.00000
    124       8.3068      0.00000
    125       8.5417      0.00000
    126       8.7122      0.00000
    127       9.1067      0.00000
    128       9.2725      0.00000
    129       9.4373      0.00000
    130       9.6207      0.00000
    131       9.6666      0.00000
    132       9.9217      0.00000
    133      10.1760      0.00000
    134      10.2286      0.00000
    135      10.3067      0.00000
    136      10.3204      0.00000
    137      10.3762      0.00000
    138      10.3873      0.00000
    139      10.4697      0.00000
    140      10.5322      0.00000
    141      10.5821      0.00000
    142      10.6710      0.00000
    143      10.7237      0.00000
    144      10.8870      0.00000
    145      11.0368      0.00000
    146      11.1169      0.00000
    147      11.1191      0.00000
    148      11.3620      0.00000
    149      11.4058      0.00000
    150      11.5525      0.00000
    151      11.5797      0.00000
    152      11.6838      0.00000
    153      11.7293      0.00000
    154      11.9598      0.00000
    155      12.0475      0.00000
    156      12.1835      0.00000
    157      12.3793      0.00000
    158      12.4416      0.00000
    159      12.5054      0.00000
    160      12.5764      0.00000
    161      12.7350      0.00000
    162      12.7637      0.00000
    163      12.7735      0.00000
    164      12.8676      0.00000
    165      12.8947      0.00000
    166      13.2281      0.00000
    167      13.2947      0.00000
    168      13.3637      0.00000
    169      13.4232      0.00000
    170      13.5238      0.00000
    171      13.7305      0.00000
    172      13.8276      0.00000
    173      13.9044      0.00000
    174      13.9513      0.00000
    175      14.0676      0.00000
    176      14.1494      0.00000
    177      14.1902      0.00000
    178      14.2273      0.00000
    179      14.2514      0.00000
    180      14.4558      0.00000
    181      14.4929      0.00000
    182      14.6312      0.00000
    183      14.7657      0.00000
    184      14.9798      0.00000
    185      15.1035      0.00000
    186      15.2319      0.00000
    187      15.4622      0.00000
    188      15.5801      0.00000

 k-point     3 :       0.3333    0.0000    0.0000
  band No.  band energies     occupation 
      1     -20.1601      1.00000
      2     -20.1543      1.00000
      3     -18.6681      1.00000
      4     -18.6624      1.00000
      5     -17.2163      1.00000
      6     -17.0806      1.00000
      7     -16.8914      1.00000
      8     -16.6317      1.00000
      9     -16.3000      1.00000
     10     -15.8956      1.00000
     11     -15.4298      1.00000
     12     -15.1536      1.00000
     13     -15.0249      1.00000
     14     -14.8911      1.00000
     15     -14.8474      1.00000
     16     -14.6049      1.00000
     17     -14.2949      1.00000
     18     -14.2936      1.00000
     19     -13.9141      1.00000
     20     -13.6495      1.00000
     21     -13.4776      1.00000
     22     -13.0286      1.00000
     23     -12.9322      1.00000
     24     -12.5675      1.00000
     25     -12.0596      1.00000
     26     -11.8831      1.00000
     27     -10.9920      1.00000
     28     -10.8571      1.00000
     29     -10.2721      1.00000
     30     -10.1492      1.00000
     31      -9.4682      1.00000
     32      -9.3862      1.00000
     33      -8.6841      1.00000
     34      -8.6042      1.00000
     35      -8.0380      1.00000
     36      -7.9567      1.00000
     37      -7.7129      1.00000
     38      -7.7016      1.00000
     39      -7.6462      1.00000
     40      -7.6360      1.00000
     41      -7.5028      1.00000
     42      -6.8027      1.00000
     43      -6.4192      1.00000
     44      -6.3336      1.00000
     45      -6.2038      1.00000
     46      -6.1420      1.00000
     47      -5.9463      1.00000
     48      -5.8018      1.00000
     49      -5.7852      1.00000
     50      -5.4446      1.00000
     51      -5.3254      1.00000
     52      -5.2458      1.00000
     53      -4.9777      1.00000
     54      -4.9169      1.00000
     55      -4.6812      1.00000
     56      -4.5923      1.00000
     57      -4.4383      1.00000
     58      -4.3111      1.00000
     59      -4.2598      1.00000
     60      -4.1127      1.00000
     61      -4.0785      1.00000
     62      -4.0695      1.00000
     63      -3.9971      1.00000
     64      -3.9767      1.00000
     65      -3.9556      1.00000
     66      -3.7879      1.00000
     67      -3.7425      1.00000
     68      -3.6776      1.00000
     69      -3.5594      1.00000
     70      -3.5355      1.00000
     71      -3.4993      1.00000
     72      -3.4210      1.00000
     73      -3.2731      1.00000
     74      -3.2292      1.00000
     75      -3.1315      1.00000
     76      -2.9591      1.00000
     77      -2.9121      1.00000
     78      -2.7312      1.00000
     79      -2.6960      1.00000
     80      -2.6270      1.00000
     81      -2.6013      1.00000
     82      -2.4495      1.00000
     83      -2.4003      1.00000
     84      -2.2981      1.00000
     85      -2.1163      1.00000
     86      -1.8943      1.00000
     87      -1.7450      1.00000
     88      -1.4846      1.00000
     89      -1.2734      1.00000
     90      -1.0571      1.00000
     91      -0.7695      1.00000
     92      -0.6316      1.00000
     93      -0.4599      1.00000
     94      -0.4535      1.00000
     95      -0.3017      1.00000
     96      -0.2250      1.00000
     97       0.0202      1.00000
     98       0.0424      1.00000
     99       2.1089      0.00000
    100       2.1138      0.00000
    101       2.2644      0.00000
    102       2.2699      0.00000
    103       3.8663      0.00000
    104       3.8906      0.00000
    105       4.3032      0.00000
    106       4.4058      0.00000
    107       4.8170      0.00000
    108       5.0196      0.00000
    109       5.3542      0.00000
    110       5.5312      0.00000
    111       5.8620      0.00000
    112       5.9189      0.00000
    113       6.0973      0.00000
    114       6.1160      0.00000
    115       6.2036      0.00000
    116       6.2923      0.00000
    117       6.8885      0.00000
    118       7.6805      0.00000
    119       8.0435      0.00000
    120       8.1459      0.00000
    121       8.2698      0.00000
    122       8.4099      0.00000
    123       8.4780      0.00000
    124       8.6446      0.00000
    125       8.9661      0.00000
    126       9.1645      0.00000
    127       9.3278      0.00000
    128       9.4755      0.00000
    129       9.6885      0.00000
    130       9.7143      0.00000
    131       9.8116      0.00000
    132       9.8463      0.00000
    133       9.9380      0.00000
    134      10.0381      0.00000
    135      10.0901      0.00000
    136      10.1803      0.00000
    137      10.2603      0.00000
    138      10.2911      0.00000
    139      10.2994      0.00000
    140      10.3283      0.00000
    141      10.4024      0.00000
    142      10.6079      0.00000
    143      10.6297      0.00000
    144      10.6413      0.00000
    145      10.7652      0.00000
    146      10.7842      0.00000
    147      10.8194      0.00000
    148      10.8435      0.00000
    149      10.9099      0.00000
    150      11.0418      0.00000
    151      11.2566      0.00000
    152      11.3711      0.00000
    153      11.4863      0.00000
    154      11.6789      0.00000
    155      11.9304      0.00000
    156      12.0231      0.00000
    157      12.0312      0.00000
    158      12.0597      0.00000
    159      12.1093      0.00000
    160      12.1676      0.00000
    161      12.2092      0.00000
    162      12.3281      0.00000
    163      12.3331      0.00000
    164      12.4394      0.00000
    165      12.4779      0.00000
    166      12.5852      0.00000
    167      12.6466      0.00000
    168      12.8370      0.00000
    169      12.8812      0.00000
    170      12.9020      0.00000
    171      13.1411      0.00000
    172      13.1867      0.00000
    173      13.2898      0.00000
    174      13.3269      0.00000
    175      13.4613      0.00000
    176      13.4907      0.00000
    177      13.8481      0.00000
    178      13.9605      0.00000
    179      14.2087      0.00000
    180      14.5078      0.00000
    181      14.5105      0.00000
    182      14.5716      0.00000
    183      14.9201      0.00000
    184      15.0813      0.00000
    185      15.1031      0.00000
    186      15.2138      0.00000
    187      15.2783      0.00000
    188      15.9825      0.00000

 k-point     4 :       0.5000    0.0000    0.0000
  band No.  band energies     occupation 
      1     -19.8768      1.00000
      2     -19.8710      1.00000
      3     -19.0453      1.00000
      4     -19.0397      1.00000
      5     -16.3439      1.00000
      6     -16.3439      1.00000
      7     -16.2111      1.00000
      8     -16.2110      1.00000
      9     -16.0267      1.00000
     10     -16.0267      1.00000
     11     -15.7727      1.00000
     12     -15.7726      1.00000
     13     -15.4482      1.00000
     14     -15.4482      1.00000
     15     -15.0529      1.00000
     16     -15.0528      1.00000
     17     -14.5981      1.00000
     18     -14.5981      1.00000
     19     -14.0737      1.00000
     20     -14.0736      1.00000
     21     -13.5022      1.00000
     22     -13.5018      1.00000
     23     -12.9190      1.00000
     24     -12.9189      1.00000
     25     -12.1337      1.00000
     26     -12.1314      1.00000
     27     -11.0999      1.00000
     28     -11.0998      1.00000
     29     -10.3586      1.00000
     30     -10.3581      1.00000
     31      -9.5412      1.00000
     32      -9.5411      1.00000
     33      -8.6957      1.00000
     34      -8.6956      1.00000
     35      -7.8552      1.00000
     36      -7.8550      1.00000
     37      -7.0831      1.00000
     38      -7.0824      1.00000
     39      -6.4419      1.00000
     40      -6.4408      1.00000
     41      -5.9464      1.00000
     42      -5.9460      1.00000
     43      -5.6637      1.00000
     44      -5.6632      1.00000
     45      -5.5609      1.00000
     46      -5.5594      1.00000
     47      -5.5330      1.00000
     48      -5.5324      1.00000
     49      -4.9025      1.00000
     50      -4.8994      1.00000
     51      -4.7721      1.00000
     52      -4.7716      1.00000
     53      -4.7466      1.00000
     54      -4.7462      1.00000
     55      -4.7040      1.00000
     56      -4.7020      1.00000
     57      -4.6487      1.00000
     58      -4.6487      1.00000
     59      -4.5838      1.00000
     60      -4.5838      1.00000
     61      -4.5629      1.00000
     62      -4.5629      1.00000
     63      -4.5237      1.00000
     64      -4.5220      1.00000
     65      -4.2584      1.00000
     66      -4.2573      1.00000
     67      -3.8814      1.00000
     68      -3.8805      1.00000
     69      -3.7982      1.00000
     70      -3.7939      1.00000
     71      -3.5276      1.00000
     72      -3.5253      1.00000
     73      -3.4958      1.00000
     74      -3.4957      1.00000
     75      -3.3697      1.00000
     76      -3.3682      1.00000
     77      -3.3176      1.00000
     78      -3.3164      1.00000
     79      -3.1808      1.00000
     80      -3.1798      1.00000
     81      -2.9207      1.00000
     82      -2.9201      1.00000
     83      -2.5962      1.00000
     84      -2.5956      1.00000
     85      -2.2179      1.00000
     86      -2.2175      1.00000
     87      -1.7874      1.00000
     88      -1.7870      1.00000
     89      -1.3331      1.00000
     90      -1.3327      1.00000
     91      -0.8692      1.00000
     92      -0.8688      1.00000
     93      -0.4522      1.00000
     94      -0.4505      1.00000
     95      -0.3400      1.00000
     96      -0.3347      1.00000
     97      -0.1732      1.00000
     98      -0.1725      1.00000
     99       1.9406      0.00004
    100       1.9461      0.00002
    101       2.0816      0.00000
    102       2.0866      0.00000
    103       4.0510      0.00000
    104       4.0510      0.00000
    105       4.5522      0.00000
    106       4.5528      0.00000
    107       5.1871      0.00000
    108       5.1874      0.00000
    109       5.8761      0.00000
    110       5.8763      0.00000
    111       6.5539      0.00000
    112       6.5541      0.00000
    113       7.1767      0.00000
    114       7.1768      0.00000
    115       7.6961      0.00000
    116       7.6962      0.00000
    117       8.0936      0.00000
    118       8.0937      0.00000
    119       8.3602      0.00000
    120       8.3603      0.00000
    121       8.5228      0.00000
    122       8.5235      0.00000
    123       8.5762      0.00000
    124       8.5766      0.00000
    125       9.2548      0.00000
    126       9.2589      0.00000
    127       9.5606      0.00000
    128       9.5607      0.00000
    129       9.5992      0.00000
    130       9.5997      0.00000
    131       9.7584      0.00000
    132       9.7593      0.00000
    133       9.8589      0.00000
    134       9.8597      0.00000
    135      10.0226      0.00000
    136      10.0227      0.00000
    137      10.1157      0.00000
    138      10.1173      0.00000
    139      10.1702      0.00000
    140      10.1711      0.00000
    141      10.3059      0.00000
    142      10.3060      0.00000
    143      10.4090      0.00000
    144      10.4097      0.00000
    145      10.5412      0.00000
    146      10.5413      0.00000
    147      10.6095      0.00000
    148      10.6095      0.00000
    149      10.8839      0.00000
    150      10.8841      0.00000
    151      11.1303      0.00000
    152      11.1305      0.00000
    153      11.2438      0.00000
    154      11.2441      0.00000
    155      11.5494      0.00000
    156      11.5495      0.00000
    157      11.6409      0.00000
    158      11.6412      0.00000
    159      11.6621      0.00000
    160      11.6622      0.00000
    161      11.7751      0.00000
    162      11.7752      0.00000
    163      12.0462      0.00000
    164      12.0464      0.00000
    165      12.1370      0.00000
    166      12.1387      0.00000
    167      12.4330      0.00000
    168      12.4333      0.00000
    169      12.9452      0.00000
    170      12.9453      0.00000
    171      13.1677      0.00000
    172      13.1693      0.00000
    173      13.5770      0.00000
    174      13.5777      0.00000
    175      13.7400      0.00000
    176      13.7406      0.00000
    177      13.7693      0.00000
    178      13.7715      0.00000
    179      14.1120      0.00000
    180      14.1137      0.00000
    181      14.4094      0.00000
    182      14.4380      0.00000
    183      14.5161      0.00000
    184      14.7422      0.00000
    185      14.9715      0.00000
    186      15.2351      0.00000
    187      15.2643      0.00000
    188      15.4208      0.00000

 k-point     5 :       0.0000    0.0000    0.5000
  band No.  band energies     occupation 
      1     -20.4415      1.00000
      2     -20.4358      1.00000
      3     -17.9642      1.00000
      4     -17.9586      1.00000
      5     -17.4812      1.00000
      6     -17.3473      1.00000
      7     -17.1612      1.00000
      8     -16.9052      1.00000
      9     -16.5780      1.00000
     10     -16.1785      1.00000
     11     -15.7181      1.00000
     12     -15.1837      1.00000
     13     -14.5917      1.00000
     14     -13.9420      1.00000
     15     -13.2436      1.00000
     16     -12.5408      1.00000
     17     -12.5091      1.00000
     18     -12.4249      1.00000
     19     -12.2678      1.00000
     20     -12.0499      1.00000
     21     -11.7690      1.00000
     22     -11.7651      1.00000
     23     -11.4827      1.00000
     24     -11.4228      1.00000
     25     -11.3868      1.00000
     26     -11.2741      1.00000
     27     -11.1137      1.00000
     28     -11.0748      1.00000
     29     -11.0203      1.00000
     30     -10.9100      1.00000
     31     -10.6967      1.00000
     32     -10.6078      1.00000
     33     -10.5456      1.00000
     34     -10.5345      1.00000
     35     -10.0177      1.00000
     36      -9.4321      1.00000
     37      -8.7932      1.00000
     38      -8.6354      1.00000
     39      -8.6131      1.00000
     40      -8.2481      1.00000
     41      -8.1731      1.00000
     42      -8.1041      1.00000
     43      -7.7800      1.00000
     44      -7.4795      1.00000
     45      -7.3702      1.00000
     46      -7.2275      1.00000
     47      -6.9768      1.00000
     48      -6.8564      1.00000
     49      -6.7613      1.00000
     50      -6.7001      1.00000
     51      -6.5980      1.00000
     52      -6.5709      1.00000
     53      -6.4770      1.00000
     54      -6.1793      1.00000
     55      -6.1132      1.00000
     56      -5.8373      1.00000
     57      -5.8108      1.00000
     58      -5.8058      1.00000
     59      -5.4857      1.00000
     60      -5.3701      1.00000
     61      -5.1719      1.00000
     62      -5.0008      1.00000
     63      -4.8998      1.00000
     64      -4.8543      1.00000
     65      -4.6924      1.00000
     66      -4.3780      1.00000
     67      -4.2878      1.00000
     68      -4.2318      1.00000
     69      -4.0050      1.00000
     70      -3.6583      1.00000
     71      -3.5855      1.00000
     72      -3.5434      1.00000
     73      -3.0679      1.00000
     74      -2.9930      1.00000
     75      -2.9754      1.00000
     76      -2.5493      1.00000
     77      -2.5199      1.00000
     78      -2.2418      1.00000
     79      -2.1067      1.00000
     80      -2.0107      1.00000
     81      -1.6623      1.00000
     82      -1.5915      1.00000
     83      -1.4667      1.00000
     84      -1.3462      1.00000
     85      -1.3247      1.00000
     86      -1.2176      1.00000
     87      -1.2120      1.00000
     88      -0.6640      1.00000
     89      -0.5123      1.00000
     90      -0.5071      1.00000
     91      -0.0576      1.00000
     92       0.1095      1.00000
     93       0.1461      1.00000
     94       0.3515      1.00000
     95       0.6783      1.00000
     96       0.9362      1.00000
     97       1.0864      1.00000
     98       1.5739      1.00000
     99       1.6681      0.99992
    100       2.1229      0.00000
    101       2.3185      0.00000
    102       2.7559      0.00000
    103       2.8632      0.00000
    104       3.1283      0.00000
    105       3.1336      0.00000
    106       3.2796      0.00000
    107       3.4395      0.00000
    108       3.5674      0.00000
    109       3.7472      0.00000
    110       3.8743      0.00000
    111       3.8903      0.00000
    112       4.1812      0.00000
    113       4.9742      0.00000
    114       5.8128      0.00000
    115       6.6884      0.00000
    116       7.5905      0.00000
    117       8.5108      0.00000
    118       9.4248      0.00000
    119       9.5890      0.00000
    120       9.8447      0.00000
    121      10.1577      0.00000
    122      10.2211      0.00000
    123      10.2501      0.00000
    124      10.2540      0.00000
    125      10.3089      0.00000
    126      10.4420      0.00000
    127      10.5209      0.00000
    128      10.5469      0.00000
    129      10.9496      0.00000
    130      10.9853      0.00000
    131      11.0223      0.00000
    132      11.2933      0.00000
    133      11.3872      0.00000
    134      11.5737      0.00000
    135      11.5922      0.00000
    136      11.9952      0.00000
    137      12.1146      0.00000
    138      12.1414      0.00000
    139      12.1711      0.00000
    140      12.2413      0.00000
    141      12.2583      0.00000
    142      12.3062      0.00000
    143      12.3416      0.00000
    144      12.5026      0.00000
    145      12.5128      0.00000
    146      12.6110      0.00000
    147      12.6528      0.00000
    148      12.7148      0.00000
    149      12.7986      0.00000
    150      12.8048      0.00000
    151      12.8304      0.00000
    152      13.0350      0.00000
    153      13.0774      0.00000
    154      13.1118      0.00000
    155      13.1238      0.00000
    156      13.1838      0.00000
    157      13.3415      0.00000
    158      13.3814      0.00000
    159      13.4014      0.00000
    160      13.4324      0.00000
    161      13.5058      0.00000
    162      13.5934      0.00000
    163      13.6259      0.00000
    164      13.7223      0.00000
    165      13.7408      0.00000
    166      13.7642      0.00000
    167      13.7756      0.00000
    168      13.8495      0.00000
    169      13.9027      0.00000
    170      13.9157      0.00000
    171      14.0721      0.00000
    172      14.1107      0.00000
    173      14.1768      0.00000
    174      14.2039      0.00000
    175      14.3473      0.00000
    176      14.3803      0.00000
    177      14.4353      0.00000
    178      14.4642      0.00000
    179      14.6981      0.00000
    180      14.7231      0.00000
    181      14.7705      0.00000
    182      14.8215      0.00000
    183      14.8704      0.00000
    184      14.9195      0.00000
    185      14.9719      0.00000
    186      15.0334      0.00000
    187      15.1104      0.00000
    188      15.2687      0.00000

 k-point     6 :       0.1667    0.0000    0.5000
  band No.  band energies     occupation 
      1     -20.3356      1.00000
      2     -20.3298      1.00000
      3     -18.1747      1.00000
      4     -18.1690      1.00000
      5     -17.3334      1.00000
      6     -17.1998      1.00000
      7     -17.0140      1.00000
      8     -16.7585      1.00000
      9     -16.4318      1.00000
     10     -16.0330      1.00000
     11     -15.5734      1.00000
     12     -15.0400      1.00000
     13     -14.4494      1.00000
     14     -13.8023      1.00000
     15     -13.7544      1.00000
     16     -13.6322      1.00000
     17     -13.4662      1.00000
     18     -13.2378      1.00000
     19     -13.1096      1.00000
     20     -12.9455      1.00000
     21     -12.5905      1.00000
     22     -12.3978      1.00000
     23     -12.1875      1.00000
     24     -11.8586      1.00000
     25     -11.5149      1.00000
     26     -11.3170      1.00000
     27     -10.4658      1.00000
     28     -10.3768      1.00000
     29     -10.0073      1.00000
     30      -9.9186      1.00000
     31      -9.8963      1.00000
     32      -9.8699      1.00000
     33      -9.7383      1.00000
     34      -9.7055      1.00000
     35      -9.5293      1.00000
     36      -9.4648      1.00000
     37      -9.3708      1.00000
     38      -8.8812      1.00000
     39      -8.1998      1.00000
     40      -7.9037      1.00000
     41      -7.8082      1.00000
     42      -7.5963      1.00000
     43      -7.5044      1.00000
     44      -7.2684      1.00000
     45      -7.0987      1.00000
     46      -6.9663      1.00000
     47      -6.7116      1.00000
     48      -6.5941      1.00000
     49      -6.5041      1.00000
     50      -6.4476      1.00000
     51      -6.4381      1.00000
     52      -6.4249      1.00000
     53      -6.2239      1.00000
     54      -5.9311      1.00000
     55      -5.8994      1.00000
     56      -5.7334      1.00000
     57      -5.6829      1.00000
     58      -5.5655      1.00000
     59      -5.3279      1.00000
     60      -5.1304      1.00000
     61      -5.1042      1.00000
     62      -4.9371      1.00000
     63      -4.7301      1.00000
     64      -4.6251      1.00000
     65      -4.6169      1.00000
     66      -4.4183      1.00000
     67      -4.1022      1.00000
     68      -4.0980      1.00000
     69      -4.0659      1.00000
     70      -3.7629      1.00000
     71      -3.4974      1.00000
     72      -3.4502      1.00000
     73      -3.3608      1.00000
     74      -2.9839      1.00000
     75      -2.9515      1.00000
     76      -2.7872      1.00000
     77      -2.6222      1.00000
     78      -2.4632      1.00000
     79      -2.2855      1.00000
     80      -2.0934      1.00000
     81      -2.0432      1.00000
     82      -2.0044      1.00000
     83      -1.8354      1.00000
     84      -1.6745      1.00000
     85      -1.6612      1.00000
     86      -1.6331      1.00000
     87      -1.3113      1.00000
     88      -1.1693      1.00000
     89      -1.0023      1.00000
     90      -0.7738      1.00000
     91      -0.6198      1.00000
     92      -0.5809      1.00000
     93      -0.5729      1.00000
     94      -0.4794      1.00000
     95      -0.1529      1.00000
     96      -0.0201      1.00000
     97       0.1702      1.00000
     98       0.2835      1.00000
     99       1.7532      0.91358
    100       1.7691      0.81954
    101       2.8338      0.00000
    102       2.8392      0.00000
    103       3.0765      0.00000
    104       3.1217      0.00000
    105       3.5496      0.00000
    106       3.6910      0.00000
    107       4.0692      0.00000
    108       4.2934      0.00000
    109       4.5970      0.00000
    110       4.7049      0.00000
    111       4.9510      0.00000
    112       5.0398      0.00000
    113       5.1046      0.00000
    114       5.3702      0.00000
    115       6.1722      0.00000
    116       7.0506      0.00000
    117       7.9618      0.00000
    118       8.8741      0.00000
    119       9.6304      0.00000
    120       9.7172      0.00000
    121       9.8532      0.00000
    122      10.0037      0.00000
    123      10.0686      0.00000
    124      10.1458      0.00000
    125      10.1609      0.00000
    126      10.1863      0.00000
    127      10.2130      0.00000
    128      10.3468      0.00000
    129      10.4296      0.00000
    130      10.6101      0.00000
    131      10.6924      0.00000
    132      10.7874      0.00000
    133      10.9045      0.00000
    134      11.0442      0.00000
    135      11.1170      0.00000
    136      11.3812      0.00000
    137      11.4444      0.00000
    138      11.6126      0.00000
    139      11.6734      0.00000
    140      12.0114      0.00000
    141      12.0679      0.00000
    142      12.1154      0.00000
    143      12.2072      0.00000
    144      12.2699      0.00000
    145      12.4962      0.00000
    146      12.5360      0.00000
    147      12.5585      0.00000
    148      12.5590      0.00000
    149      12.6028      0.00000
    150      12.6746      0.00000
    151      12.8008      0.00000
    152      12.9452      0.00000
    153      12.9712      0.00000
    154      13.0647      0.00000
    155      13.1631      0.00000
    156      13.2341      0.00000
    157      13.2607      0.00000
    158      13.2874      0.00000
    159      13.3558      0.00000
    160      13.4589      0.00000
    161      13.5556      0.00000
    162      13.5725      0.00000
    163      13.6062      0.00000
    164      13.7033      0.00000
    165      13.8060      0.00000
    166      13.8103      0.00000
    167      13.8548      0.00000
    168      13.8753      0.00000
    169      14.0358      0.00000
    170      14.1072      0.00000
    171      14.2273      0.00000
    172      14.2402      0.00000
    173      14.3576      0.00000
    174      14.4172      0.00000
    175      14.5017      0.00000
    176      14.5302      0.00000
    177      14.5680      0.00000
    178      14.6213      0.00000
    179      14.6474      0.00000
    180      14.7400      0.00000
    181      14.7881      0.00000
    182      14.8527      0.00000
    183      14.9450      0.00000
    184      15.0699      0.00000
    185      15.2742      0.00000
    186      15.4224      0.00000
    187      15.5020      0.00000
    188      15.5970      0.00000

 k-point     7 :       0.3333    0.0000    0.5000
  band No.  band energies     occupation 
      1     -20.0486      1.00000
      2     -20.0428      1.00000
      3     -18.6563      1.00000
      4     -18.6506      1.00000
      5     -16.8881      1.00000
      6     -16.7552      1.00000
      7     -16.5706      1.00000
      8     -16.3168      1.00000
      9     -15.9922      1.00000
     10     -15.5959      1.00000
     11     -15.1393      1.00000
     12     -15.0892      1.00000
     13     -14.9609      1.00000
     14     -14.7850      1.00000
     15     -14.6097      1.00000
     16     -14.5426      1.00000
     17     -14.2322      1.00000
     18     -14.0259      1.00000
     19     -13.8529      1.00000
     20     -13.4319      1.00000
     21     -13.3776      1.00000
     22     -12.9356      1.00000
     23     -12.7229      1.00000
     24     -12.4563      1.00000
     25     -11.8946      1.00000
     26     -11.7829      1.00000
     27     -10.8414      1.00000
     28     -10.7933      1.00000
     29     -10.1085      1.00000
     30     -10.1013      1.00000
     31      -9.3463      1.00000
     32      -9.3235      1.00000
     33      -8.5858      1.00000
     34      -8.5772      1.00000
     35      -8.0226      1.00000
     36      -8.0086      1.00000
     37      -7.9006      1.00000
     38      -7.8510      1.00000
     39      -7.7959      1.00000
     40      -7.7818      1.00000
     41      -7.5175      1.00000
     42      -6.7978      1.00000
     43      -6.5036      1.00000
     44      -6.4029      1.00000
     45      -6.2701      1.00000
     46      -6.2378      1.00000
     47      -5.9303      1.00000
     48      -5.9065      1.00000
     49      -5.9001      1.00000
     50      -5.8254      1.00000
     51      -5.8233      1.00000
     52      -5.6897      1.00000
     53      -5.5166      1.00000
     54      -5.4840      1.00000
     55      -5.3605      1.00000
     56      -5.2257      1.00000
     57      -5.2031      1.00000
     58      -4.9947      1.00000
     59      -4.9809      1.00000
     60      -4.8641      1.00000
     61      -4.6373      1.00000
     62      -4.6285      1.00000
     63      -4.4603      1.00000
     64      -4.4534      1.00000
     65      -4.3204      1.00000
     66      -4.2317      1.00000
     67      -4.0594      1.00000
     68      -4.0320      1.00000
     69      -3.9946      1.00000
     70      -3.9563      1.00000
     71      -3.7809      1.00000
     72      -3.7510      1.00000
     73      -3.6118      1.00000
     74      -3.5936      1.00000
     75      -3.4852      1.00000
     76      -3.4754      1.00000
     77      -3.3272      1.00000
     78      -3.1734      1.00000
     79      -3.0870      1.00000
     80      -2.9900      1.00000
     81      -2.9639      1.00000
     82      -2.9480      1.00000
     83      -2.7274      1.00000
     84      -2.7087      1.00000
     85      -2.6867      1.00000
     86      -2.4495      1.00000
     87      -2.4195      1.00000
     88      -2.2481      1.00000
     89      -2.0477      1.00000
     90      -1.8106      1.00000
     91      -1.5407      1.00000
     92      -1.4021      1.00000
     93      -1.0406      1.00000
     94      -1.0297      1.00000
     95      -0.7542      1.00000
     96      -0.7338      1.00000
     97      -0.4990      1.00000
     98      -0.4936      1.00000
     99       1.5196      1.00000
    100       1.5284      1.00000
    101       2.2231      0.00000
    102       2.2285      0.00000
    103       3.2270      0.00000
    104       3.3100      0.00000
    105       3.7272      0.00000
    106       3.9495      0.00000
    107       4.3811      0.00000
    108       4.7014      0.00000
    109       5.1174      0.00000
    110       5.4572      0.00000
    111       5.9043      0.00000
    112       6.1091      0.00000
    113       6.6097      0.00000
    114       6.7259      0.00000
    115       6.9806      0.00000
    116       7.1499      0.00000
    117       7.2482      0.00000
    118       7.6653      0.00000
    119       8.5325      0.00000
    120       9.2892      0.00000
    121       9.3061      0.00000
    122       9.3417      0.00000
    123       9.4819      0.00000
    124       9.4996      0.00000
    125       9.6893      0.00000
    126       9.7535      0.00000
    127       9.8605      0.00000
    128       9.9012      0.00000
    129       9.9924      0.00000
    130      10.1584      0.00000
    131      10.2096      0.00000
    132      10.2871      0.00000
    133      10.2929      0.00000
    134      10.4293      0.00000
    135      10.5504      0.00000
    136      10.7026      0.00000
    137      10.8020      0.00000
    138      10.8762      0.00000
    139      11.1680      0.00000
    140      11.2336      0.00000
    141      11.3814      0.00000
    142      11.4085      0.00000
    143      11.6885      0.00000
    144      11.9770      0.00000
    145      12.1543      0.00000
    146      12.1702      0.00000
    147      12.2582      0.00000
    148      12.3791      0.00000
    149      12.5253      0.00000
    150      12.5660      0.00000
    151      12.6338      0.00000
    152      12.8595      0.00000
    153      12.8931      0.00000
    154      12.9305      0.00000
    155      13.0236      0.00000
    156      13.1309      0.00000
    157      13.1373      0.00000
    158      13.1694      0.00000
    159      13.2352      0.00000
    160      13.2788      0.00000
    161      13.2967      0.00000
    162      13.3912      0.00000
    163      13.4948      0.00000
    164      13.5390      0.00000
    165      13.6737      0.00000
    166      13.7350      0.00000
    167      13.8878      0.00000
    168      13.9197      0.00000
    169      13.9727      0.00000
    170      14.0485      0.00000
    171      14.1348      0.00000
    172      14.2749      0.00000
    173      14.4006      0.00000
    174      14.4583      0.00000
    175      14.5358      0.00000
    176      14.5837      0.00000
    177      14.7092      0.00000
    178      14.7160      0.00000
    179      14.9126      0.00000
    180      14.9896      0.00000
    181      15.1189      0.00000
    182      15.1620      0.00000
    183      15.2387      0.00000
    184      15.3180      0.00000
    185      15.4004      0.00000
    186      15.6321      0.00000
    187      15.8458      0.00000
    188      16.0900      0.00000

 k-point     8 :       0.5000    0.0000    0.5000
  band No.  band energies     occupation 
      1     -19.8045      1.00000
      2     -19.7987      1.00000
      3     -18.9915      1.00000
      4     -18.9858      1.00000
      5     -16.1404      1.00000
      6     -16.1404      1.00000
      7     -16.0094      1.00000
      8     -16.0093      1.00000
      9     -15.8278      1.00000
     10     -15.8277      1.00000
     11     -15.5773      1.00000
     12     -15.5773      1.00000
     13     -15.2572      1.00000
     14     -15.2571      1.00000
     15     -14.8667      1.00000
     16     -14.8666      1.00000
     17     -14.4172      1.00000
     18     -14.4171      1.00000
     19     -13.8982      1.00000
     20     -13.8981      1.00000
     21     -13.3319      1.00000
     22     -13.3315      1.00000
     23     -12.7510      1.00000
     24     -12.7510      1.00000
     25     -11.9848      1.00000
     26     -11.9826      1.00000
     27     -10.9711      1.00000
     28     -10.9711      1.00000
     29     -10.2362      1.00000
     30     -10.2357      1.00000
     31      -9.4290      1.00000
     32      -9.4290      1.00000
     33      -8.5979      1.00000
     34      -8.5979      1.00000
     35      -7.7793      1.00000
     36      -7.7790      1.00000
     37      -7.0422      1.00000
     38      -7.0413      1.00000
     39      -6.4430      1.00000
     40      -6.4418      1.00000
     41      -5.9919      1.00000
     42      -5.9917      1.00000
     43      -5.7671      1.00000
     44      -5.7668      1.00000
     45      -5.7033      1.00000
     46      -5.7022      1.00000
     47      -5.6796      1.00000
     48      -5.6783      1.00000
     49      -4.9898      1.00000
     50      -4.9869      1.00000
     51      -4.8762      1.00000
     52      -4.8759      1.00000
     53      -4.8416      1.00000
     54      -4.8411      1.00000
     55      -4.7885      1.00000
     56      -4.7848      1.00000
     57      -4.7711      1.00000
     58      -4.7685      1.00000
     59      -4.7484      1.00000
     60      -4.7484      1.00000
     61      -4.6790      1.00000
     62      -4.6789      1.00000
     63      -4.6552      1.00000
     64      -4.6552      1.00000
     65      -4.6486      1.00000
     66      -4.6481      1.00000
     67      -4.5163      1.00000
     68      -4.5153      1.00000
     69      -4.4881      1.00000
     70      -4.4878      1.00000
     71      -4.2904      1.00000
     72      -4.2898      1.00000
     73      -4.2106      1.00000
     74      -4.2094      1.00000
     75      -3.9975      1.00000
     76      -3.9970      1.00000
     77      -3.8220      1.00000
     78      -3.8220      1.00000
     79      -3.6460      1.00000
     80      -3.6454      1.00000
     81      -3.4805      1.00000
     82      -3.4782      1.00000
     83      -3.2835      1.00000
     84      -3.2824      1.00000
     85      -3.2301      1.00000
     86      -3.2295      1.00000
     87      -2.7764      1.00000
     88      -2.7760      1.00000
     89      -2.2902      1.00000
     90      -2.2900      1.00000
     91      -1.7977      1.00000
     92      -1.7976      1.00000
     93      -1.3610      1.00000
     94      -1.3595      1.00000
     95      -1.0638      1.00000
     96      -1.0619      1.00000
     97      -0.3820      1.00000
     98      -0.3767      1.00000
     99       1.4404      1.00000
    100       1.4454      1.00000
    101       1.8911      0.00559
    102       1.8966      0.00354
    103       3.2276      0.00000
    104       3.2276      0.00000
    105       3.8131      0.00000
    106       3.8137      0.00000
    107       4.5593      0.00000
    108       4.5596      0.00000
    109       5.3854      0.00000
    110       5.3857      0.00000
    111       6.2325      0.00000
    112       6.2327      0.00000
    113       7.0577      0.00000
    114       7.0579      0.00000
    115       7.8054      0.00000
    116       7.8056      0.00000
    117       8.4362      0.00000
    118       8.4363      0.00000
    119       8.9174      0.00000
    120       8.9175      0.00000
    121       8.9917      0.00000
    122       8.9917      0.00000
    123       9.1997      0.00000
    124       9.2000      0.00000
    125       9.2431      0.00000
    126       9.2435      0.00000
    127       9.3957      0.00000
    128       9.3958      0.00000
    129       9.4973      0.00000
    130       9.4973      0.00000
    131       9.8261      0.00000
    132       9.8273      0.00000
    133      10.0833      0.00000
    134      10.0836      0.00000
    135      10.1817      0.00000
    136      10.1820      0.00000
    137      10.5776      0.00000
    138      10.5777      0.00000
    139      10.6902      0.00000
    140      10.6908      0.00000
    141      11.1891      0.00000
    142      11.1897      0.00000
    143      11.3198      0.00000
    144      11.3200      0.00000
    145      11.8352      0.00000
    146      11.8377      0.00000
    147      12.3969      0.00000
    148      12.4004      0.00000
    149      12.4751      0.00000
    150      12.4786      0.00000
    151      12.8809      0.00000
    152      12.8809      0.00000
    153      12.9588      0.00000
    154      12.9589      0.00000
    155      13.0450      0.00000
    156      13.0451      0.00000
    157      13.2044      0.00000
    158      13.2045      0.00000
    159      13.2590      0.00000
    160      13.2598      0.00000
    161      13.3878      0.00000
    162      13.3882      0.00000
    163      13.5630      0.00000
    164      13.5631      0.00000
    165      13.6869      0.00000
    166      13.6876      0.00000
    167      13.7813      0.00000
    168      13.7820      0.00000
    169      13.9364      0.00000
    170      13.9371      0.00000
    171      14.2134      0.00000
    172      14.2153      0.00000
    173      14.3170      0.00000
    174      14.3199      0.00000
    175      14.5589      0.00000
    176      14.5635      0.00000
    177      14.7431      0.00000
    178      14.7635      0.00000
    179      14.8567      0.00000
    180      14.9013      0.00000
    181      14.9847      0.00000
    182      15.0074      0.00000
    183      15.3875      0.00000
    184      15.4475      0.00000
    185      15.6822      0.00000
    186      15.8374      0.00000
    187      16.3501      0.00000
    188      16.7686      0.00000


--------------------------------------------------------------------------------------------------------


 soft charge-density along one line, spin component           1
         0         1         2         3         4         5         6         7         8         9
 total charge-density along one line
 
 soft charge-density along one line, spin component           2
         0         1         2         3         4         5         6         7         8         9
 total charge-density along one line
 
 pseudopotential strength for first ion, spin component:           1
  9.941  13.213   0.000   0.000   0.000  -0.000  -0.000  -0.000
 13.213  17.562   0.000   0.000   0.000  -0.000  -0.000  -0.000
  0.000   0.000  -4.103  -0.000   0.000   8.027   0.000  -0.000
  0.000   0.000  -0.000  -4.096  -0.000   0.000   8.017   0.000
  0.000   0.000   0.000  -0.000  -4.103  -0.000   0.000   8.027
 -0.000  -0.000   8.027   0.000  -0.000 -17.824  -0.000   0.000
 -0.000  -0.000   0.000   8.017   0.000  -0.000 -17.814  -0.000
 -0.000  -0.000  -0.000   0.000   8.027   0.000  -0.000 -17.824
 pseudopotential strength for first ion, spin component:           2
  9.941  13.213   0.000   0.000   0.000  -0.000  -0.000  -0.000
 13.213  17.562   0.000   0.000   0.000  -0.000  -0.000  -0.000
  0.000   0.000  -4.103  -0.000   0.000   8.027   0.000  -0.000
  0.000   0.000  -0.000  -4.096  -0.000   0.000   8.017   0.000
  0.000   0.000   0.000  -0.000  -4.103  -0.000   0.000   8.027
 -0.000  -0.000   8.027   0.000  -0.000 -17.823  -0.000   0.000
 -0.000  -0.000   0.000   8.017   0.000  -0.000 -17.815  -0.000
 -0.000  -0.000  -0.000   0.000   8.027   0.000  -0.000 -17.823
 total augmentation occupancy for first ion, spin component:           1
  8.232  -3.670   0.003  -0.001  -0.004   0.000  -0.000  -0.001
 -3.670   1.694  -0.002   0.000   0.002  -0.000  -0.000   0.000
  0.003  -0.002   1.824  -0.000  -0.001   0.168  -0.000  -0.000
 -0.001   0.000  -0.000   1.202  -0.002  -0.000   0.072  -0.000
 -0.004   0.002  -0.001  -0.002   1.821  -0.000  -0.000   0.168
  0.000  -0.000   0.168  -0.000  -0.000   0.017  -0.000  -0.000
 -0.000  -0.000  -0.000   0.072  -0.000  -0.000   0.005   0.000
 -0.001   0.000  -0.000  -0.000   0.168  -0.000   0.000   0.017
 total augmentation occupancy for first ion, spin component:           2
 -0.000  -0.000  -0.000   0.000  -0.000  -0.000   0.000  -0.000
 -0.000   0.000   0.000  -0.000   0.000   0.000  -0.000   0.000
 -0.000   0.000   0.000   0.000  -0.000  -0.000  -0.000   0.000
  0.000  -0.000   0.000  -0.001  -0.000  -0.000  -0.000   0.000
 -0.000   0.000  -0.000  -0.000   0.000   0.000   0.000  -0.000
 -0.000   0.000  -0.000  -0.000   0.000  -0.000  -0.000   0.000
  0.000  -0.000  -0.000  -0.000   0.000  -0.000   0.000   0.000
 -0.000   0.000   0.000   0.000  -0.000   0.000   0.000  -0.000


------------------------ aborting loop because EDIFF is reached ----------------------------------------


    CHARGE:  cpu time    0.3476: real time    0.3505
    FORLOC:  cpu time    0.0404: real time    0.0403
    FORNL :  cpu time    2.0736: real time    2.0772
    FORCOR:  cpu time    0.2273: real time    0.2279
    FORHAR:  cpu time    0.0504: real time    0.0506
    MIXING:  cpu time    0.0047: real time    0.0047
    OFIELD:  cpu time    0.0001: real time    0.0001

  DFT-D2 method for vdW energy calculation
  -------------------------------------------------------------------

  Parameters of vdW forcefield:
         C6(Jnm^6/mol)     R0(A)
   -----------------------------
   C        1.750          1.452
   O        0.700          1.342

  IVDW =  10
  VDW_RADIUS =    50.000 A
  VDW_S6 =     0.750
  VDW_SR =     1.000
  VDW_D =    20.000
  LVDW_EWALD = F

  Number of pair interactions contributing to vdW energy: 1155973
  Edisp (eV):   -6.02654
    FORVDW:  cpu time    0.0976: real time    0.0978

 VOLUME and BASIS-vectors are now :
 -----------------------------------------------------------------------------
  energy-cutoff  :      450.00
  volume of cell :      534.83
      direct lattice vectors                 reciprocal lattice vectors
     4.266200066  0.000000000  0.000000000     0.234400634  0.000000000  0.104785421
     0.000000000 39.409500122  0.000000000     0.000000000  0.025374592  0.000000000
    -1.422064714  0.000000000  3.181099698     0.000000000  0.000000000  0.314356699

  length of vectors
     4.266200066 39.409500122  3.484488964     0.256755996  0.025374592  0.314356699


 FORCES acting on ions
    electron-ion (+dipol)            ewald-force                    non-local-force                 convergence-correction
 -----------------------------------------------------------------------------------------------
   -.365E+00 0.470E+02 0.199E+00   0.349E+00 -.470E+02 -.208E+00   0.214E-01 0.220E-01 0.809E-02   0.240E-03 0.181E-02 0.199E-04
   0.365E+00 0.470E+02 -.199E+00   -.347E+00 -.470E+02 0.207E+00   -.264E-01 0.196E-01 -.857E-02   -.510E-03 0.233E-02 -.347E-04
   -.365E+00 -.470E+02 0.199E+00   0.349E+00 0.470E+02 -.208E+00   0.214E-01 -.220E-01 0.809E-02   0.282E-03 -.133E-03 0.232E-04
   0.365E+00 -.470E+02 -.199E+00   -.347E+00 0.470E+02 0.207E+00   -.264E-01 -.196E-01 -.857E-02   -.563E-03 -.663E-03 -.412E-04
   0.188E+00 -.140E+03 0.209E+00   -.160E+00 0.140E+03 -.218E+00   -.728E-02 -.162E-01 -.195E-02   -.205E-03 -.651E-02 -.188E-04
   -.191E+00 -.140E+03 -.209E+00   0.162E+00 0.140E+03 0.218E+00   0.105E-01 -.143E-01 0.215E-02   0.958E-03 -.658E-02 0.492E-04
   -.364E+00 -.234E+03 0.198E+00   0.351E+00 0.234E+03 -.207E+00   0.208E-01 0.175E-03 0.113E-01   0.596E-03 -.151E-01 0.634E-04
   0.372E+00 -.234E+03 -.198E+00   -.361E+00 0.234E+03 0.207E+00   -.152E-01 -.249E-02 -.113E-01   -.424E-03 -.137E-01 -.583E-04
   -.291E+00 -.327E+03 0.200E+00   0.280E+00 0.327E+03 -.208E+00   0.263E-01 -.291E-01 0.337E-02   -.131E-02 -.189E-01 -.681E-04
   0.282E+00 -.327E+03 -.200E+00   -.269E+00 0.328E+03 0.209E+00   -.253E-01 -.312E-01 -.355E-02   0.824E-03 -.183E-01 0.386E-04
   0.195E+00 -.421E+03 0.211E+00   -.180E+00 0.421E+03 -.219E+00   -.168E-03 -.459E-01 -.778E-02   0.281E-03 -.299E-01 0.257E-04
   -.189E+00 -.421E+03 -.211E+00   0.172E+00 0.421E+03 0.219E+00   -.119E-02 -.441E-01 0.719E-02   0.185E-03 -.294E-01 0.384E-05
   -.558E+00 -.514E+03 0.196E+00   0.549E+00 0.514E+03 -.205E+00   0.581E-02 -.274E-01 0.119E-01   0.605E-03 -.272E-01 0.454E-04
   0.555E+00 -.514E+03 -.196E+00   -.547E+00 0.514E+03 0.205E+00   -.913E-02 -.311E-01 -.119E-01   -.520E-03 -.257E-01 -.483E-04
   -.314E+00 -.608E+03 0.201E+00   0.337E+00 0.608E+03 -.207E+00   0.140E-01 0.589E-02 -.195E-01   -.126E-02 -.280E-01 -.716E-04
   0.309E+00 -.608E+03 -.201E+00   -.331E+00 0.608E+03 0.207E+00   -.166E-01 0.965E-02 0.192E-01   0.966E-03 -.269E-01 0.605E-04
   0.232E+00 -.700E+03 0.223E+00   -.278E+00 0.701E+03 -.230E+00   0.306E-01 -.173E-01 -.210E-01   0.569E-03 -.280E-01 0.343E-04
   -.225E+00 -.700E+03 -.223E+00   0.270E+00 0.701E+03 0.230E+00   -.317E-01 -.184E-01 0.207E-01   -.557E-03 -.275E-01 -.394E-04
   -.216E+01 -.794E+03 0.206E+00   0.225E+01 0.794E+03 -.216E+00   -.574E-01 0.104E+00 0.874E-02   0.355E-03 -.240E-01 -.431E-05
   0.215E+01 -.794E+03 -.206E+00   -.224E+01 0.794E+03 0.217E+00   0.546E-01 0.106E+00 -.879E-02   0.517E-03 -.222E-01 0.289E-04
   0.302E-01 -.892E+03 -.158E-01   0.221E+00 0.891E+03 0.388E-01   -.273E+00 0.673E+00 -.199E+00   0.210E-03 -.199E-01 0.408E-04
   -.175E-01 -.892E+03 0.162E-01   -.235E+00 0.891E+03 -.393E-01   0.273E+00 0.673E+00 0.199E+00   -.449E-04 -.164E-01 -.204E-04
   0.459E+01 -.936E+03 0.103E+01   -.411E+01 0.932E+03 -.109E+01   -.135E+01 0.466E+01 0.211E+00   -.216E-02 -.141E-01 -.122E-03
   -.462E+01 -.936E+03 -.103E+01   0.415E+01 0.932E+03 0.109E+01   0.135E+01 0.466E+01 -.211E+00   -.279E-03 -.141E-01 0.376E-04
   0.459E+01 0.936E+03 0.103E+01   -.411E+01 -.932E+03 -.109E+01   -.135E+01 -.466E+01 0.211E+00   -.216E-02 0.150E-01 -.125E-03
   -.462E+01 0.936E+03 -.103E+01   0.415E+01 -.932E+03 0.109E+01   0.135E+01 -.466E+01 -.211E+00   -.272E-03 0.151E-01 0.402E-04
   0.299E-01 0.892E+03 -.158E-01   0.226E+00 -.891E+03 0.389E-01   -.273E+00 -.673E+00 -.199E+00   0.288E-03 0.215E-01 0.450E-04
   -.173E-01 0.892E+03 0.162E-01   -.239E+00 -.891E+03 -.393E-01   0.273E+00 -.673E+00 0.199E+00   -.121E-03 0.180E-01 -.239E-04
   -.216E+01 0.794E+03 0.206E+00   0.224E+01 -.794E+03 -.216E+00   -.574E-01 -.104E+00 0.874E-02   0.328E-03 0.259E-01 -.566E-05
   0.215E+01 0.794E+03 -.206E+00   -.224E+01 -.794E+03 0.217E+00   0.546E-01 -.106E+00 -.879E-02   0.534E-03 0.242E-01 0.276E-04
   0.232E+00 0.700E+03 0.223E+00   -.277E+00 -.701E+03 -.230E+00   0.306E-01 0.173E-01 -.210E-01   0.503E-03 0.290E-01 0.318E-04
   -.225E+00 0.700E+03 -.223E+00   0.270E+00 -.701E+03 0.230E+00   -.317E-01 0.184E-01 0.207E-01   -.426E-03 0.287E-01 -.243E-04
   -.314E+00 0.608E+03 0.201E+00   0.341E+00 -.608E+03 -.207E+00   0.140E-01 -.589E-02 -.195E-01   -.124E-02 0.284E-01 -.691E-04
   0.309E+00 0.608E+03 -.201E+00   -.334E+00 -.608E+03 0.207E+00   -.166E-01 -.965E-02 0.192E-01   0.571E-03 0.267E-01 0.150E-04
   -.558E+00 0.514E+03 0.196E+00   0.549E+00 -.514E+03 -.205E+00   0.581E-02 0.274E-01 0.119E-01   0.656E-03 0.237E-01 0.465E-04
   0.555E+00 0.514E+03 -.196E+00   -.547E+00 -.514E+03 0.205E+00   -.913E-02 0.311E-01 -.119E-01   0.982E-03 0.230E-01 0.215E-04
   0.195E+00 0.421E+03 0.211E+00   -.179E+00 -.421E+03 -.219E+00   -.168E-03 0.459E-01 -.778E-02   0.310E-03 0.196E-01 0.276E-04
   -.189E+00 0.421E+03 -.211E+00   0.172E+00 -.421E+03 0.219E+00   -.119E-02 0.441E-01 0.719E-02   0.157E-03 0.223E-01 0.196E-05
   -.291E+00 0.327E+03 0.200E+00   0.276E+00 -.327E+03 -.208E+00   0.263E-01 0.291E-01 0.337E-02   -.140E-02 0.156E-01 -.725E-04
   0.282E+00 0.327E+03 -.200E+00   -.265E+00 -.328E+03 0.209E+00   -.253E-01 0.312E-01 -.355E-02   -.645E-03 0.158E-01 -.281E-04
   -.364E+00 0.234E+03 0.198E+00   0.347E+00 -.234E+03 -.207E+00   0.208E-01 -.175E-03 0.113E-01   0.610E-03 0.156E-01 0.635E-04
   0.372E+00 0.234E+03 -.198E+00   -.357E+00 -.234E+03 0.207E+00   -.152E-01 0.249E-02 -.113E-01   -.636E-04 0.136E-01 -.153E-04
   0.188E+00 0.140E+03 0.209E+00   -.160E+00 -.140E+03 -.218E+00   -.728E-02 0.162E-01 -.195E-02   -.167E-03 0.783E-02 -.167E-04
   -.191E+00 0.140E+03 -.209E+00   0.162E+00 -.140E+03 0.218E+00   0.105E-01 0.143E-01 0.215E-02   0.853E-03 0.802E-02 0.344E-04
   -.372E+02 -.181E+04 -.906E+00   0.476E+02 0.186E+04 0.110E+01   -.948E+01 -.515E+02 -.235E+00   0.634E-03 -.127E-01 0.925E-04
   0.372E+02 -.181E+04 0.906E+00   -.476E+02 0.186E+04 -.110E+01   0.949E+01 -.515E+02 0.235E+00   -.131E-02 -.226E-01 -.942E-04
   -.372E+02 0.181E+04 -.906E+00   0.476E+02 -.186E+04 0.110E+01   -.948E+01 0.515E+02 -.235E+00   0.791E-03 0.134E-01 0.949E-04
   0.372E+02 0.181E+04 0.906E+00   -.476E+02 -.186E+04 -.110E+01   0.949E+01 0.515E+02 0.235E+00   -.129E-02 0.233E-01 -.968E-04
 -----------------------------------------------------------------------------------------------
   -.124E-01 0.122E+00 -.119E-03   0.107E-12 0.455E-12 -.946E-13   0.133E-01 0.000E+00 -.265E-02   -.312E-02 -.101E-01 -.845E-04
 
 
 POSITION                                       TOTAL-FORCE (eV/Angst)
 -----------------------------------------------------------------------------------
      4.26503      0.00031      0.00000         0.005023      0.007184     -0.008280
      1.42170      0.00031      0.00000        -0.009535      0.005115      0.007922
      2.13193      1.23049      0.00000         0.005023     -0.007184     -0.008280
      3.55480      1.23049      0.00000        -0.009535     -0.005115      0.007922
      4.26577      2.46157      0.00000         0.020476      0.005137     -0.018050
      1.42070      2.46148      0.00000        -0.017583      0.006436      0.018373
      2.13168      3.69262      0.00000         0.006236      0.005204     -0.005195
      3.55481      3.69268      0.00000        -0.002184      0.002168      0.005278
      4.26504      4.92321      0.00000         0.011836     -0.006621     -0.012604
      1.42178      4.92328      0.00000        -0.009976     -0.008670      0.012555
      2.13284      6.15476      0.00000         0.015865      0.008193     -0.023489
      3.55430      6.15472      0.00000        -0.017392      0.010160      0.023018
      4.26484      7.38605      0.00000        -0.002838      0.000590     -0.004855
      1.42260      7.38619      0.00000        -0.000088     -0.003026      0.005018
      2.13210      8.61629      0.00000         0.038276     -0.016891     -0.032563
      3.55547      8.61618      0.00000        -0.039583     -0.013435      0.032385
      4.26547      9.84847      0.00000        -0.014710      0.041939     -0.035711
      1.42208      9.84851      0.00000         0.013827      0.042403      0.035555
      2.12986     11.08080      0.00000         0.029443     -0.078847     -0.009054
      3.55760     11.08074      0.00000        -0.032259     -0.078023      0.009119
      0.00924     12.30166      0.00000        -0.001778      0.028532     -0.184491
      1.41175     12.30161      0.00000         0.001730      0.026284      0.184333
      2.13361     13.52895      0.00000        -0.851857      0.719373      0.154300
      3.55322     13.52897      0.00000         0.855081      0.718666     -0.153469
      0.00051     27.11135      0.00000        -0.851857     -0.719373      0.154300
      1.42012     27.11132      0.00000         0.855081     -0.718666     -0.153469
      2.14234     28.33860      0.00000        -0.001778     -0.028532     -0.184491
      3.54485     28.33865      0.00000         0.001730     -0.026284      0.184333
      4.26296     29.55946      0.00000         0.029443      0.078847     -0.009054
      1.42450     29.55952      0.00000        -0.032259      0.078023      0.009119
      2.13237     30.79183      0.00000        -0.014710     -0.041939     -0.035711
      3.55518     30.79179      0.00000         0.013827     -0.042403      0.035555
      4.26520     32.02397      0.00000         0.038276      0.016891     -0.032563
      1.42237     32.02408      0.00000        -0.039583      0.013435      0.032385
      2.13174     33.25421      0.00000        -0.002838     -0.000590     -0.004855
      3.55570     33.25407      0.00000        -0.000088      0.003026      0.005018
      4.26594     34.48550      0.00000         0.015865     -0.008193     -0.023489
      1.42120     34.48554      0.00000        -0.017392     -0.010160      0.023018
      2.13194     35.71705      0.00000         0.011836      0.006621     -0.012604
      3.55488     35.71698      0.00000        -0.009976      0.008670      0.012555
      4.26478     36.94768      0.00000         0.006236     -0.005204     -0.005195
      1.42171     36.94761      0.00000        -0.002184     -0.002168      0.005278
      2.13267     38.17873      0.00000         0.020476     -0.005137     -0.018050
      3.55380     38.17882      0.00000        -0.017583     -0.006436      0.018373
      3.96259     14.74613      0.00000         0.934000     -0.686551     -0.038817
      1.72392     14.74600      0.00000        -0.932010     -0.684614      0.038721
      1.82949     25.89417      0.00000         0.934000      0.686551     -0.038817
      3.85702     25.89430      0.00000        -0.932010      0.684614      0.038721
 -----------------------------------------------------------------------------------
    total drift:                               -0.002202      0.111553     -0.002854


--------------------------------------------------------------------------------------------------------



  FREE ENERGIE OF THE ION-ELECTRON SYSTEM (eV)
  ---------------------------------------------------
  free  energy   TOTEN  =      -429.60788464 eV

  energy  without entropy=     -429.59910530  energy(sigma->0) =     -429.60349497
 


--------------------------------------------------------------------------------------------------------


    POTLOK:  cpu time    0.2093: real time    0.2097


--------------------------------------------------------------------------------------------------------


 writing wavefunctions
     LOOP+:  cpu time  354.0067: real time  358.5506
    4ORBIT:  cpu time    0.0000: real time    0.0000

 total amount of memory used by VASP MPI-rank0   209956. kBytes
=======================================================================

   base      :      30000. kBytes
   nonlr-proj:       5386. kBytes
   fftplans  :       6832. kBytes
   grid      :      22579. kBytes
   one-center:        294. kBytes
   wavefun   :     144865. kBytes
   nonl-proj :          0. kBytes
 
  
  
 General timing and accounting informations for this job:
 ========================================================
  
                  Total CPU time used (sec):      359.788
                            User time (sec):      315.674
                          System time (sec):       44.114
                         Elapsed time (sec):      365.083
  
                   Maximum memory used (kb):      501448.
                   Average memory used (kb):           0.
  
                          Minor page faults:      6049192
                          Major page faults:            0
                 Voluntary context switches:         7196
